X Direction (m/s) | Y Direction (m/s) | Z Direction (m/s) | Heading (deg) | Time (sec) (XYZ in ecef coords)
            -0.05              0.08             -0.02           240.979      345627
                0              0.02             -0.01          -74.9281      345628
            -0.01              0.02             -0.01           265.853      345629
            -2.67             -1.42             -1.92           253.986      345630
            18.14              2.35             -0.09           96.1926      345632
             25.3               6.2              4.19            84.279      345633
            26.08              7.16               5.4           79.9993      345634
            25.86              7.12              5.53           79.2326      345635
            26.56              7.13              5.47           79.3608      345636
            26.58              6.71              5.09           78.9626      345637
            26.63              6.66              4.89           79.5504      345638
            26.63               6.4              4.79           79.9273      345639
            26.13              6.45              4.72            79.832      345640
            26.51              6.48              4.81            79.955      345641
            26.44              6.75              4.93           79.4856      345642
            26.59              6.62              5.07           79.5278      345643
            26.49              6.45              5.15            79.492      345644
            26.55              6.72              5.11           79.3161      345645
            26.53              6.55              5.06            79.421      345646
            26.44              6.66              5.25           79.2021      345647
            26.37              6.66              5.43           78.9482      345648
            26.43              6.93               5.4           78.6931      345649
            26.41              6.95              5.32           78.7235      345650
            26.38               7.1              5.28           78.7159      345651
            26.39               6.7              5.13           79.1842      345652
            26.48              6.55              4.76           79.7354      345653
            26.59              6.38              4.61            80.409      345654
            26.78              6.36              4.52           80.5494      345655
            26.81              6.24              4.31           80.9357      345656
            26.89              5.93              3.91           81.7241      345657
            26.48              5.84              3.78           81.8419      345658
             26.4              5.83              3.73           81.9405      345659
            26.77              5.92              3.87           82.0264      345660
            26.89              6.03              3.97           81.7157      345661
            26.96              5.87              3.71           82.0576      345662
            26.96              5.82              3.62           82.3399      345663
            26.91              5.83              3.74           82.3945      345664
            26.87              5.97              3.93           81.8697      345665
            26.89              5.97               3.9           81.7843      345666
            26.83              6.02              3.96           86.8596      345667
            26.93              5.84              3.65           86.5172      345668
            26.87               5.5              3.28           86.9089      345669
            27.11              5.45              3.12           86.8801      345670
            27.17               5.2              2.73           87.0897      345671
             27.1              5.36              2.94           86.7534      345672
               27              5.66              3.37           85.7887      345673
            26.96               5.8              3.56           85.0022      345674
            26.96              5.84              3.62           84.6496      345675
               27               5.8              3.47           84.6292      345676
            27.07              5.52              3.06           85.1599      345677
            26.98              5.62              3.23           84.3326      345678
            26.88              5.88              3.63           84.3026      345679
            26.93              5.88              3.61           84.0605      345680
            26.75              5.91              3.77           83.7369      345681
            26.76              6.15              4.11           82.3805      345682
            26.73              6.28              4.28           82.5749      345683
            26.74              6.31              4.31           82.3155      345684
            26.93              6.18              4.06           82.6435      345685
            26.84              5.83              3.64           83.3856      345686
            26.95              5.78              3.53           83.0777      345687
            26.95              5.76              3.49           83.7865      345688
            26.76              6.13              4.05           82.9753      345689
             26.6              6.44              4.51           81.9801      345690
            26.68              6.42              4.44           81.6554      345691
            26.82              6.03              3.85           81.8765      345692
            26.67               5.7              3.54           83.3519      345693
             26.7              6.15              4.16           82.5619      345694
            26.63              6.26              4.33           81.9566      345695
             26.8              5.91              3.78           81.9623      345696
            27.03              5.38              2.96           84.1001      345697
            27.16              4.92              2.27           85.5555      345698
            27.71               4.9              2.12           86.4268      345699
            27.16              5.09              2.46           85.9503      345700
               27              5.47              3.02           84.9076      345701
            26.87              5.84              3.56           83.4675      345702
            26.82              5.98              3.78           82.4196      345703
            26.89              5.69              3.39           83.5006      345704
             26.9              5.55              3.18           83.9966      345705
            26.77              5.64              3.32           83.1332      345706
            26.72              5.98               3.8           82.8915      345707
            26.87              5.65              3.35           83.2808      345708
            27.09              5.48              3.06           83.9798      345709
            27.08              5.58               3.2           83.7536      345710
            26.51              5.67              3.43           83.2082      345711
             26.9              5.86              3.62           82.4055      345712
            26.82              6.11              3.98           81.7631      345713
             26.8              5.97              3.77           81.8555      345714
               27              5.44              2.98           83.7116      345715
            27.03              5.12               2.5           85.0445      345716
            27.35              4.71              1.83            86.301      345717
            27.45              4.26              1.19           87.5306      345718
            27.41              3.95              0.75           88.5174      345719
            27.35              4.08              0.95           88.1992      345720
            27.35               4.1              0.99           88.3141      345721
            27.42              3.81              0.55           89.0719      345722
            27.81              3.37             -0.03           90.3263      345723
            27.48              2.91             -0.65           91.3514      345724
            27.39               3.4              0.04           90.6919      345725
            27.77              3.96              0.76            89.296      345726
            27.34              3.57              0.17            67.102      345727
            27.84              2.79             -1.04           59.9492      345728
            27.59              2.03             -2.07           91.9566      345729
            27.66              1.92             -2.23           93.2727      345730
            27.87              1.72             -2.61           91.7039      345731
            27.57               1.5             -2.84           95.4405      345732
             27.6              1.04             -3.49           96.7672      345733
            27.37              0.53             -4.09           97.2439      345734
            27.38              0.13             -4.67           99.5617      345735
             27.2             -0.03             -4.84           99.6357      345736
            27.21              0.35             -4.38           99.1791      345737
            27.24              0.21             -4.62           98.4258      345738
             27.3              0.35             -4.44           98.4054      345739
            27.45              0.16             -4.74           100.088      345740
             27.3             -0.01             -4.94           100.286      345741
            27.33              0.02              -4.9           99.8357      345742
            27.06             -0.33             -5.45           101.174      345743
            27.01             -0.76             -6.04           102.745      345744
            27.12              -0.5             -5.67           102.493      345745
            26.98             -0.08             -5.04           101.037      345746
            27.29             -0.91             -6.25           102.486      345747
            26.87              -1.4             -6.87           104.404      345748
            26.81             -1.36              -6.8           104.017      345749
            26.64             -1.25             -6.59           104.343      345750
            27.09             -1.46             -6.96           104.669      345751
            26.41             -2.72             -8.64           107.574      345752
            25.89             -3.61             -9.83           110.674      345753
            25.73             -3.32             -9.37           111.007      345754
            26.48             -2.97             -9.05            109.76      345755
            26.09             -2.67             -8.51           108.829      345756
            26.04             -2.94             -8.88           108.769      345757
            26.17             -2.95             -8.91           108.872      345758
             26.3             -2.92             -8.89           109.494      345759
            26.38             -3.11             -9.24           109.664      345760
            25.61             -3.71             -9.96           110.803      345761
            25.51                -4            -10.34               112      345762
            25.06             -4.02            -10.35           113.087      345763
            25.51             -4.24            -10.73           113.563      345764
            25.79             -3.93            -10.32           112.885      345765
            25.76             -3.26             -9.39           111.209      345766
            26.07             -3.37             -9.55           110.939      345767
            25.86             -3.56             -9.72           111.179      345768
            25.49              -4.1            -10.43           111.963      345769
            25.23             -4.49            -10.95           113.405      345770
            25.47             -4.41            -10.87           114.121      345771
             25.5             -3.88            -10.13           112.883      345772
            25.61             -3.52             -9.68            111.69      345773
            25.87             -3.17             -9.23           110.608      345774
            25.96             -3.07             -9.07           109.993      345775
            25.65             -3.04             -8.97           109.345      345776
            25.58             -3.05             -8.94           109.358      345777
            25.76             -3.21             -9.18           110.262      345778
             25.8             -3.63             -9.79           110.628      345779
             25.6             -3.88            -10.12           112.168      345780
            25.64             -4.06            -10.36           112.981      345781
            25.81             -3.92            -10.16           112.545      345782
            25.58             -3.66             -9.82           111.844      345783
            25.71             -3.71             -9.92           111.218      345784
            25.69             -3.71             -9.92           111.293      345785
            25.67             -3.55             -9.62           111.011      345786
            25.77             -3.64             -9.77           110.899      345787
            25.58             -3.62             -9.83           111.719      345788
            25.75             -3.79            -10.08           112.261      345789
            25.66             -3.78            -10.01           111.601      345790
            25.81             -3.53              -9.7            111.58      345791
            25.41             -3.44              -9.5           110.702      345792
            25.95             -3.54              -9.7           111.314      345793
            25.67             -3.74             -9.94           111.157      345794
            25.17             -3.66             -9.74           112.025      345795
            25.75             -3.68             -9.88           111.252      345796
            25.51             -3.67             -9.85           111.909      345797
            25.61              -3.5              -9.7            111.51      345798
            25.75             -3.46             -9.59           110.771      345799
            25.68             -3.73             -9.96           111.154      345800
            25.34             -3.97            -10.32           112.615      345801
            25.46             -4.13            -10.56           112.617      345802
            25.75             -3.92            -10.29           112.838      345803
            25.54              -3.7             -9.98           112.235      345804
             25.9              -3.4             -9.59           110.731      345805
               26              -3.2             -9.31           109.989      345806
            25.76             -3.49             -9.68           110.501      345807
            25.54             -3.55             -9.82           111.734      345808
             25.6             -3.64             -9.93           111.318      345809
            25.77             -3.58             -9.86           111.213      345810
            26.09             -3.41             -9.67           111.318      345811
            25.79             -3.82            -10.26           112.024      345812
            25.45             -3.63               -10           112.183      345813
            25.74             -3.53             -9.87           111.856      345814
            25.38              -3.4             -9.59           110.855      345815
            25.89             -3.44             -9.69           111.351      345816
            25.72             -3.64             -9.92           111.071      345817
            25.24             -4.18             -10.5           113.093      345818
            25.46             -4.16            -10.47            113.33      345819
            25.46                -4            -10.35           112.887      345820
            25.31             -4.27            -10.71               113      345821
            25.13              -4.2            -10.63           113.848      345822
            25.12             -4.16            -10.61            113.76      345823
             25.2             -4.17            -10.57           113.681      345824
            25.37             -4.16            -10.59           113.318      345825
            25.45             -4.07            -10.47           112.581      345826
            25.56             -3.69              -9.9           112.385      345827
            25.31             -3.53             -9.62           111.117      345828
            25.72             -3.67             -9.89           111.168      345829
            25.36             -3.83            -10.15           112.363      345830
            25.23             -4.16            -10.67           113.266      345831
            25.11             -4.52            -11.15           113.954      345832
            24.93             -4.43            -10.98            114.81      345833
            24.97             -4.27             -10.8           114.345      345834
            25.36             -3.99            -10.44           112.963      345835
            25.66             -3.57             -9.87           111.675      345836
            25.73             -3.61             -9.95           111.854      345837
            25.84             -3.59             -9.93           111.283      345838
            25.84             -3.42             -9.66           111.707      345839
            25.85             -3.33              -9.5           111.086      345840
            25.74              -3.4              -9.5           110.528      345841
            25.77             -3.18             -9.21           110.616      345842
            26.05             -2.73             -8.71           109.548      345843
            26.43             -2.43             -8.33            107.72      345844
            26.24             -2.45             -8.26           108.207      345845
            26.07             -2.63             -8.51           108.526      345846
            26.21              -2.9             -8.92           109.381      345847
            25.54                -3             -8.92            109.85      345848
             26.1             -3.12             -9.18           109.435      345849
            25.88             -3.03             -8.93           109.956      345850
            25.99             -3.32             -9.32            110.49      345851
            25.79             -3.63             -9.75           110.634      345852
            25.33             -3.95            -10.17           112.389      345853
            25.28             -4.38            -10.78           113.023      345854
            25.23             -4.24            -10.54           113.767      345855
            25.22             -3.61             -9.73           112.458      345856
            25.44              -3.8             -9.96           112.184      345857
            25.01              -4.4            -10.76           113.388      345858
            25.09             -4.25            -10.52           114.001      345859
            17.91             -2.44             -6.64           111.763      345860
             8.74             -0.78             -2.65           109.541      345861
             3.98             -0.96             -2.04           111.545      345862
             3.68             -1.03              -2.1           170.679      345863
            -0.54             -0.66             -0.82           264.164      345864
            -0.34             -0.36              -0.4           -88.338      345865
             -0.3             -0.36             -0.38          -87.8981      345866
            -0.26             -0.37             -0.38          -88.3574      345867
             -0.4              1.45              -0.8          -81.8355      345613
            -0.36              1.25              -0.7            248.74      345614
            -0.25              0.74             -0.32            225.12      345615
                0              0.17             -0.08           163.981      345616
                0              0.09             -0.05           179.045      345617
                0              0.06             -0.03           174.713      345618
                0              0.05             -0.02           174.279      345619
             0.01              0.03             -0.02           171.397      345620
                0              0.03             -0.02           181.817      345621
             0.01              0.02             -0.01           178.744      345622
                0              0.01             -0.01           201.307      345623
             0.01              0.01             -0.01           166.691      345624
             0.01              0.01             -0.01           168.174      345625
             0.01              0.01             -0.01           163.155      345626
             0.01              0.01             -0.01           212.279      345627
             0.01              0.01             -0.01           146.449      345628
             0.01              0.01             -0.01           121.256      345629
            -1.89             -1.69             -2.25           221.408      345630
             9.73             -1.12             -3.45           114.316      345631
            18.31              2.23             -0.18           94.3168      345632
            25.43                 6              4.11            83.676      345633
            26.15              6.99               5.4            79.044      345634
            25.91               7.1              5.56           78.6455      345635
             26.5              7.03              5.42           78.9476      345636
             26.5               6.8               5.1           79.4507      345637
            26.62              6.68              4.89           79.9021      345638
            26.39              6.55              4.72           80.2629      345639
            26.12              6.51               4.7           79.7021      345640
            26.59              6.66              4.84           80.1438      345641
            26.57              6.78              4.98           79.8383      345642
            26.67               6.9              5.11           79.5469      345643
            26.44              6.88              5.13           78.9247      345644
            26.44              6.75              5.02           79.7106      345645
             26.5              6.79              5.06           79.1367      345646
            26.44              6.91              5.25           78.7818      345647
            26.37              7.05              5.44           78.8782      345648
            26.29                 7              5.37           78.9299      345649
            26.39              6.98              5.32           78.9485      345650
            26.37              6.95              5.28           78.5133      345651
             26.4              6.87              5.16           79.3137      345652
            26.57               6.6              4.75           79.4111      345653
            26.63              6.53              4.64           79.9341      345654
            26.83              6.46              4.49           80.7915      345655
            26.78              6.32              4.28           80.5514      345656
            26.81              6.01               3.9           81.9863      345657
            26.43              5.85              3.74           82.2368      345658
            26.35              5.83              3.71           82.0356      345659
             26.9              6.06              3.93           81.4426      345660
            26.83              6.05              3.93           81.3976      345661
            26.86              5.88              3.68           81.7432      345662
            26.94              5.85              3.61           82.7181      345663
            26.98                 6              3.81           82.4826      345664
            26.75              6.03               3.9           82.2365      345665
            26.86              6.03              3.88           82.1189      345666
            26.86              6.06              3.92           82.0745      345667
            26.94              5.87              3.63           82.4745      345668
            27.04              5.66               3.3           83.1343      345669
               27              5.48              3.07           83.3054      345670
            27.17              5.25              2.71           84.4389      345671
            27.17              5.43              2.91           84.2793      345672
            26.98               5.7              3.34           82.7967      345673
            26.95              5.84              3.55           82.2005      345674
            26.88              5.87               3.6           82.7763      345675
            27.03              5.76              3.42           83.0317      345676
            27.13              5.53              3.05           83.6309      345677
            26.98              5.63              3.23           83.6141      345678
            26.91              5.95              3.66           82.7804      345679
            26.91               5.9               3.6           82.6362      345680
            26.85              6.03              3.81           81.6635      345681
            26.76              6.22               4.1           81.0967      345682
            26.73              6.32              4.26           80.7088      345683
            26.69              6.33              4.28           80.5876      345684
            26.89              6.17              4.02           81.7704      345685
            26.85              5.93              3.68            82.403      345686
            26.94              5.81              3.51           82.8131      345687
            26.88              5.71              3.43           83.0813      345688
             26.8              6.13              4.05           81.4711      345689
            26.59              6.43              4.51           81.0659      345690
            26.65              6.38              4.43           80.2177      345691
            26.81                 6              3.85           81.2023      345692
            26.85              5.84               3.6           81.8323      345693
            26.61              6.19              4.13           81.9287      345694
            26.65              6.34              4.33           81.2808      345695
            26.81              5.97              3.77           82.0121      345696
            27.03              5.42              2.95           83.1805      345697
            27.16              4.95              2.25           85.1858      345698
            27.62              4.92              2.11           85.8417      345699
            27.17              5.07              2.42           85.5296      345700
            27.01              5.47              3.03           84.3151      345701
            26.88              5.83              3.57           83.0832      345702
            26.83              5.98              3.79           82.4305      345703
            26.95              5.78              3.43           82.8334      345704
            26.87              5.58              3.16           82.6754      345705
            26.83              5.71              3.35           83.2261      345706
            26.71              5.98              3.75           82.4533      345707
            26.88              5.67              3.35           82.8605      345708
            27.06              5.48              3.05           82.8027      345709
            27.08              5.59              3.19           83.4809      345710
             26.5              5.68              3.43           82.2452      345711
            26.93              5.87              3.63           82.6207      345712
            26.81              6.13              4.01           81.9842      345713
            26.79              5.96              3.77            82.169      345714
               27              5.44              2.98           82.6264      345715
            27.03              5.12              2.51           84.7449      345716
            27.28              4.67              1.82           86.0472      345717
            27.44              4.25               1.2            87.434      345718
            27.42              3.94              0.76           87.6329      345719
            27.36              4.08              0.96           87.5991      345720
            27.35              4.09              0.99           88.3265      345721
            27.42               3.8              0.56           88.8852      345722
            27.89              3.43             -0.07           90.1146      345723
            27.48              2.96             -0.66            91.392      345724
            27.38              3.44              0.03           90.6676      345725
            27.78              3.99              0.76           89.1161      345726
            27.36              3.54               0.2           88.7206      345727
             27.8              2.69             -0.98           91.7863      345728
            27.58              1.94             -2.04           94.0386      345729
            27.68              1.85             -2.19           94.1442      345730
            27.99              1.68             -2.56           95.3088      345731
            27.57              1.43             -2.82            96.129      345732
            27.33              1.02             -3.39           97.0514      345733
            27.26              0.59             -4.09           98.4232      345734
            27.19              0.16             -4.65           99.7841      345735
            27.25              0.06             -4.81           98.7134      345736
            27.41              0.33             -4.46            99.272      345737
            27.36               0.2             -4.62           99.3877      345738
            27.27              0.36             -4.39           98.4253      345739
            27.26              0.18             -4.64           98.8029      345740
            27.28              0.04             -4.86            99.397      345741
            27.39             -0.01             -4.91           100.317      345742
             27.1             -0.39             -5.38           100.517      345743
            26.89             -0.78             -5.95            101.79      345744
            27.11             -0.54             -5.64           100.915      345745
               27             -0.08                -5           100.563      345746
            27.28             -0.95             -6.28           102.111      345747
            26.66             -1.34             -6.78           103.817      345748
            26.81             -1.35             -6.81            104.52      345749
            26.59             -1.24             -6.56           103.939      345750
            27.09             -1.46             -6.96           104.237      345751
            26.41             -2.72             -8.64           107.201      345752
            25.87             -3.63             -9.82           110.445      345753
            25.73             -3.33             -9.36           110.646      345754
            26.49             -3.03             -9.02           109.576      345755
            25.97             -2.68             -8.47           108.575      345756
               26             -2.95             -8.89           108.338      345757
            26.15             -2.95             -8.91           108.549      345758
            26.29             -2.91             -8.87           108.455      345759
            26.24             -3.13             -9.31           109.544      345760
            25.61             -3.68             -9.97           110.551      345761
            25.51             -3.97            -10.36           111.814      345762
            25.14             -4.06            -10.34           112.373      345763
             25.5             -4.28             -10.7           113.375      345764
            25.78             -3.97            -10.31           112.775      345765
             25.7             -3.29             -9.33           111.101      345766
            26.07             -3.36             -9.52            109.94      345767
            25.91             -3.52             -9.69           110.399      345768
            25.33             -4.02            -10.32           112.414      345769
            25.22             -4.48            -10.95           113.267      345770
            25.37             -4.39            -10.84            114.22      345771
            25.65             -3.91            -10.21           112.247      345772
            25.86              -3.6              -9.8           111.166      345773
            25.84             -3.13             -9.24           110.483      345774
            25.94                -3             -9.16           109.947      345775
             25.7             -2.98             -9.03           109.971      345776
             25.6             -2.92             -8.97           109.789      345777
               26             -3.15             -9.35           109.614      345778
            25.79             -3.54             -9.83           110.572      345779
            25.49             -3.83            -10.13             112.2      345780
            25.53             -3.96            -10.34           112.275      345781
            25.72             -3.86            -10.19           112.556      345782
            25.74             -3.66              -9.9           111.326      345783
            25.56             -3.59             -9.87           111.868      345784
            25.69             -3.64             -9.95           111.227      345785
            25.78             -3.49             -9.73           110.892      345786
            25.75             -3.56             -9.81           110.925      345787
            25.58             -3.56             -9.86           111.773      345788
            25.79             -3.73             -10.1           112.031      345789
            25.72             -3.73            -10.07            111.51      345790
             25.8             -3.49             -9.72           111.572      345791
            25.38             -3.41             -9.51           110.693      345792
            25.84             -3.46             -9.67            110.79      345793
            25.65             -3.68             -9.95           111.159      345794
            25.16             -3.62             -9.76           111.977      345795
            25.75             -3.65             -9.89           111.241      345796
            25.76             -3.67             -9.91           111.215      345797
            25.65             -3.48             -9.64           111.468      345798
            25.74             -3.48             -9.57           110.712      345799
            25.69             -3.75             -9.96           111.188      345800
            25.25             -4.01            -10.28           112.741      345801
            25.18              -4.1            -10.42           113.254      345802
            25.75             -3.93            -10.26           112.804      345803
            25.83             -3.79            -10.09           111.857      345804
             25.9             -3.43             -9.59           110.749      345805
            25.86             -3.12              -9.2           110.481      345806
            25.77             -3.47             -9.69           110.395      345807
            25.53             -3.63             -9.78           111.121      345808
            25.27             -3.61             -9.82           111.912      345809
            25.76             -3.58             -9.86           111.221      345810
            26.12             -3.41             -9.61           111.278      345811
            25.74             -3.86             -10.2           112.014      345812
            25.64             -3.77            -10.05           112.285      345813
            25.59             -3.63             -9.75           111.909      345814
            25.37             -3.51             -9.54           110.926      345815
            25.94             -3.53             -9.65           111.332      345816
            25.77             -3.72             -9.89           111.066      345817
            25.15             -4.15            -10.49           113.004      345818
            25.52             -4.14            -10.48           113.348      345819
            25.55              -4.1            -10.42           112.606      345820
            25.31             -4.32            -10.69           113.082      345821
            25.05             -4.24            -10.57           113.853      345822
             25.3             -4.27            -10.66           113.222      345823
            25.19             -4.23            -10.54           113.738      345824
            25.39             -4.23            -10.58           107.363      345825
            25.46             -4.13            -10.45           109.106      345826
            25.46             -3.76              -9.9           111.955      345827
             25.3             -3.55              -9.6           112.152      345828
            25.56             -3.62              -9.8           111.626      345829
            25.29              -3.8            -10.09           112.433      345830
            25.23             -4.17            -10.67           113.587      345831
            25.09             -4.53            -11.14           113.245      345832
            24.97             -4.44            -11.02           114.891      345833
            25.03             -4.31            -10.77           114.581      345834
            25.36             -4.03            -10.42           112.644      345835
            25.69             -3.61             -9.85           111.329      345836
            25.71             -3.66             -9.92           112.332      345837
            25.83             -3.64             -9.91           111.084      345838
            25.91             -3.44             -9.67           111.884      345839
            25.92             -3.33             -9.54           111.408      345840
            25.85             -3.39              -9.6           110.388      345841
            25.84              -3.2             -9.31            110.13      345842
            26.02              -2.8             -8.65           108.793      345843
            26.42              -2.5              -8.3           107.814      345844
            26.25              -2.5             -8.23           108.609      345845
             26.3             -2.72             -8.57           107.984      345846
            26.11             -2.91             -8.84           109.795      345847
             25.5             -2.96              -8.9           110.356      345848
            26.05             -3.09             -9.16           109.479      345849
            25.88             -2.97             -9.01           110.248      345850
             26.1              -3.3              -9.4            110.78      345851
            25.83              -3.6             -9.77           110.752      345852
            25.37             -3.98            -10.21           112.773      345853
            25.26             -4.39            -10.77           113.159      345854
            25.21             -4.23            -10.54           114.074      345855
            25.12             -3.61             -9.71            112.67      345856
            25.36             -3.76             -9.99           112.415      345857
               25             -4.36            -10.78           113.168      345858
            25.11             -4.21            -10.57           114.126      345859
             17.9             -2.41             -6.69           112.572      345860
             8.73             -0.76             -2.66           110.172      345861
             5.02              0.26             -0.52           102.281      345862
             4.69              0.51              -0.1           95.9677      345863
             2.85              1.42              1.54          -47.6118      345864
             0.34             -0.46             -0.72           222.976      345865
             -0.1             -0.41             -0.56           -79.261      345866
            -0.06             -0.32             -0.43          -88.7113      345867
