X Direction (m/s) | Y Direction (m/s) | Z Direction (m/s) | Heading (deg) | Time (sec) (XYZ in ecef coords)
             0.02             -0.03              0.01           -67.284      172846
                0             -0.02              0.01           41.6917      172847
                0                 0                 0           73.9651      172848
            -0.04             -0.05                 0           185.443      172849
             0.01                 0                 0           169.086      172850
             0.01             -0.03              0.02           193.886      172851
             0.01             -0.01              0.01            205.86      172852
                0              0.01             -0.01           147.972      172853
             0.01             -0.01                 0           211.844      172854
             0.01             -0.01              0.01           160.011      172855
             0.01                 0                 0           126.702      172856
             0.01                 0             -0.01           204.776      172857
                0                 0                 0           206.104      172858
             0.01             -0.01              0.01           176.006      172859
             0.01             -0.01              0.01           119.778      172860
             -1.1              0.22              0.53          -61.0671      172861
            -2.32              0.47              1.11          -62.9597      172862
            -3.55              0.75              1.73          -62.8088      172863
            -4.72              0.74              2.07          -65.6996      172864
           -32.72             -4.37             -0.12          -87.3253      172865
           -33.55             -4.85              -0.8           269.175      172866
           -33.81             -1.82              2.42          -84.7362      172867
           -33.02              1.38                 8            -79.01      172868
           -33.75              2.32              9.68          -74.2658      172869
           -31.15              4.23             11.35          -68.8273      172870
           -25.59              3.98             10.28          -68.1928      172871
           -32.71              3.75             11.08          -70.1726      172872
           -30.45              5.44             12.06          -68.1815      172873
           -30.66               4.3             11.07          -69.0426      172874
           -31.67              6.39             12.82          -67.9443      172875
           -32.57              5.25             12.56          -67.8956      172876
           -27.11              6.21             13.58          -62.9235      172877
           -31.96              5.17             11.88          -68.9979      172878
           -32.18              4.37             11.08          -70.7083      172879
           -32.05              4.21              7.16           189.117      172880
            -32.6              5.41              9.72          -73.4243      172881
           -32.82              3.72             11.27          -68.7159      172882
           -31.66              5.38             12.89          -67.6124      172883
            -33.1              3.84             10.59          -70.6552      172884
           -29.27              3.72              9.72          -70.5745      172885
           -32.64              4.43             10.87          -70.7363      172886
           -32.49              5.21             11.98           -69.469      172887
           -33.19              5.11             12.69          -66.9195      172888
           -32.92              4.72             12.11          -67.2123      172889
           -32.29               4.4             11.52          -68.2432      172890
           -32.58              5.49             12.84           -67.789      172891
           -30.35              5.53             13.39           -62.388      172892
           -32.37              5.12             13.19          -67.3879      172893
           -34.84              3.98             11.99          -70.0293      172894
           -32.75               4.5             12.43          -70.8824      172895
           -31.54              5.13             13.15          -68.4287      172896
           -32.33              4.76             12.56          -68.4393      172897
           -31.24              5.23             13.29          -65.6754      172898
            -31.1              5.16             13.08          -66.1501      172899
           -30.42              3.92             10.96           -70.648      172900
           -31.74              5.86             13.94          -66.3727      172901
           -31.16              5.18             12.61          -67.7276      172902
           -31.86              5.05             12.71          -66.7175      172903
           -30.62              4.48             11.74          -68.2975      172904
           -30.96              5.77             11.99            132.32      172905
           -31.62              5.99             14.11          -63.1877      172906
           -31.23              4.61              13.5          -62.5094      172907
           -32.31               5.9             14.01          -65.0177      172908
           -31.03              6.64             15.08           -63.099      172909
           -30.75              5.85              13.7          -64.8055      172910
            -29.7              5.71             13.32          -66.1855      172911
           -27.98              7.11             15.75          -54.0511      172912
           -28.42              4.21             11.81          -70.5733      172913
           -31.04              5.83             14.37          -66.1946      172914
           -30.21              6.15             14.65           -66.539      172915
           -32.87               4.6              12.9          -67.0788      172916
           -31.96              4.17             12.06          -68.2857      172917
           -29.85              2.74              9.16          -74.1884      172918
           -32.72              4.83             12.64          -69.8153      172919
           -31.51              5.01             12.75          -67.1593      172920
           -32.56              3.66             11.09          -69.3559      172921
           -31.76              4.39             11.79          -69.7369      172922
           -32.27              5.39             13.05          -69.8769      172923
            -32.4              5.81             13.52          -66.6402      172924
           -30.22              6.37             13.94          -65.1708      172925
           -31.62              4.13             10.97          -68.1896      172926
           -33.06              3.83             10.86          -71.6594      172927
            -29.8              6.23             13.92          -68.2036      172928
            -31.6              4.79             12.19          -68.4672      172929
            -33.5               3.3             10.41          -73.2945      172930
           -32.25              4.71             12.34          -68.6617      172931
           -32.88              4.49             11.83          -70.5833      172932
           -31.62              3.59             10.35          -70.9178      172933
            -32.3              3.74             10.75          -72.5638      172934
           -31.29              3.68             13.99            182.19      172935
           -28.46              3.34             12.32          -68.4087      172936
           -29.12              5.54             13.51          -65.1123      172937
           -31.63               6.1             14.42          -64.6212      172938
           -32.64              4.52              12.2          -68.3367      172939
           -32.01              4.48              12.1          -68.6765      172940
           -31.08              5.29             12.96          -67.4918      172941
           -33.03              4.73             12.33          -68.7323      172942
           -32.65              5.37             12.82          -68.6386      172943
           -31.07               5.1             11.85          -68.1917      172944
           -33.41              5.07             12.17           -68.538      172945
           -31.51              4.73             11.66          -68.3216      172946
           -31.02              5.72             12.58          -67.7577      172947
           -32.04              4.18             10.34          -70.4469      172948
           -32.82              5.13             11.86          -69.5135      172949
           -32.74              4.48             11.47          -68.3174      172950
           -30.64              5.45             12.44          -67.5077      172951
           -32.17              5.53             12.86           -67.909      172952
           -31.11              5.57             13.31          -66.3655      172953
           -31.03              6.11             14.06          -65.9052      172954
           -30.14               7.3             15.44          -62.2382      172955
           -27.89              5.41             12.22          -62.8734      172956
           -32.29              4.68             11.81          -67.8387      172957
           -31.58              3.88              10.5          -69.4267      172958
           -30.38              5.01             11.83          -67.7432      172959
           -30.47              5.54             12.46          -68.3797      172960
           -31.99              5.17             12.25          -66.5068      172961
           -32.88              4.12              10.9          -70.7667      172962
           -33.34              3.85             10.56          -72.8533      172963
           -31.04              4.26             10.69          -71.5203      172964
           -32.81              4.88             11.92          -67.0081      172965
           -33.69              3.58             10.14          -70.4656      172966
           -33.55              3.25              9.59          -72.5038      172967
           -32.22              3.34              9.51          -72.0167      172968
           -33.59              2.98              9.24           -72.784      172969
           -33.71              3.01                 9          -76.3325      172970
           -32.68              2.47              8.14          -75.6346      172971
           -32.53              2.92              8.86          -73.3857      172972
           -33.53              0.69              5.85          -78.9781      172973
           -34.14              1.21              6.66          -79.6291      172974
           -35.38              0.47               6.3          -78.9503      172975
           -35.42              0.44              6.17          -80.3816      172976
           -35.39              0.06              5.56          -81.2327      172977
           -34.79              1.71              7.86          -78.1955      172978
           -33.85              2.13              8.32          -77.0491      172979
           -30.26              1.13              6.21          -78.3601      172980
           -34.91             -2.18              0.52           152.478      172981
           -33.51              -1.7              2.17           268.947      172982
            -31.3              1.76              6.81          -82.3887      172983
           -32.99             -2.43              1.46          -83.1502      172984
           -35.05             -2.13              2.22          -86.1341      172985
           -34.63             -2.66              1.65          -86.0441      172986
           -34.72             -3.31              0.57          -89.2458      172987
           -34.81             -2.22              2.15          -86.0126      172988
           -33.19             -2.77              0.77          -88.4154      172989
           -32.65             -2.27              1.32          -86.5781      172990
           -36.37             -2.54              1.39          -88.1251      172991
           -36.17             -3.85             -0.55            -89.67      172992
           -35.72             -4.22             -1.15           268.414      172993
           -32.42             -3.96             -1.51           269.909      172994
           -35.86             -3.97             -1.01           268.305      172995
           -34.58             -3.82             -0.93           269.415      172996
           -35.39             -5.37             -2.59           269.254      172997
           -33.63             -5.54             -3.21           265.995      172998
           -34.72             -5.19             -2.48           267.546      172999
           -34.67             -5.68             -3.07           266.883      173000
           -35.58             -6.37             -3.96           265.093      173001
           -32.76              -6.3             -4.32           263.752      173002
            -35.9             -8.44             -6.62           258.398      173003
           -34.85             -6.46              -3.7           264.465      173004
            -34.7             -6.04             -3.11           266.358      173005
           -33.21             -5.68             -2.86           267.543      173006
           -33.69             -7.17             -5.07           262.896      173007
            -34.1             -8.09             -6.48           259.007      173008
           -33.97             -6.74             -4.46           262.522      173009
           -34.17             -6.79             -4.48           261.397      173010
           -33.19             -5.04             -4.48           122.798      173011
           -34.82             -7.13             -6.31           255.616      173012
           -35.28             -6.68             -5.48            259.66      173013
            -35.1             -6.01              -3.7           266.557      173014
           -33.76             -6.37                -4           266.288      173015
           -30.64             -8.24             -7.08           260.128      173016
           -32.45             -5.86             -3.18           265.486      173017
           -33.28             -7.77             -5.65           263.788      173018
            -33.6             -7.43             -5.02           263.049      173019
           -33.78             -7.45             -5.05           262.478      173020
           -34.04             -6.95             -4.17           264.412      173021
           -33.26             -8.39              -6.5           260.181      173022
            -34.6             -7.34             -4.65           262.069      173023
           -35.15             -7.31             -4.49           264.332      173024
           -33.59             -6.83             -4.12           263.666      173025
           -31.13             -8.67             -7.11           259.391      173026
              -33             -6.01             -2.89           263.941      173027
            -32.6             -6.24              -3.4           264.887      173028
            -31.4             -9.09             -7.58           259.005      173029
           -33.64             -7.31             -4.58           261.078      173030
           -34.59             -6.99             -3.92           262.772      173031
            -33.8             -8.41             -5.97           261.569      173032
           -33.52             -7.03             -4.23           262.158      173033
           -32.55             -7.61             -5.12           261.313      173034
           -32.35             -6.33             -3.38           264.597      173035
           -30.95             -9.54             -8.05           258.288      173036
           -35.09             -5.87             -1.97           265.673      173037
              -35             -6.29             -2.59           265.922      173038
           -32.65             -6.84             -4.03           261.121      173039
           -31.88             -8.27             -6.09            260.43      173040
           -33.55             -9.09             -7.03           257.139      173041
           -33.17             -7.16             -4.09           263.778      173042
           -33.56             -6.82             -3.54           265.421      173043
           -33.96             -6.85              -3.6           265.651      173044
           -33.15             -8.09             -5.54            263.09      173045
           -33.95             -8.15             -5.75           260.426      173046
           -30.76             -9.01             -7.58           258.101      173047
           -31.56             -8.45             -6.71           257.048      173048
           -35.74             -8.16            -10.13           125.707      173049
           -33.75             -7.13             -7.55           263.446      173050
           -33.22              -6.1             -6.53           264.913      173051
           -34.55             -6.19             -5.14           269.484      173052
           -32.05             -6.75             -5.73           266.052      173053
           -32.79             -9.16             -8.83           259.266      173054
           -31.55             -8.84             -8.27           258.514      173055
           -28.96             -1.73              1.61          -88.6665      173056
           -32.88              -7.3             -6.07            265.22      173057
           -32.04             -5.47             -3.39           265.222      173058
           -24.71             -8.57             -8.87           255.265      173059
           -32.68             -6.56             -4.54           260.272      173060
           -31.97             -7.97             -6.68            259.74      173061
           -31.01             -8.29             -6.71           260.743      173062
           -32.61             -8.38             -6.59           259.456      173063
           -30.22             -9.09             -8.12           255.828      173064
           -32.22             -7.38             -5.31           261.135      173065
           -28.98             -7.43             -5.96            261.09      173066
