X Direction (m/s) | Y Direction (m/s) | Z Direction (m/s) | Heading (deg) | Time (sec) (XYZ in ecef coords)
             0.06              0.32              0.16           33.3569       68799
            -0.01               0.2              0.05          -6.99014       68800
            -0.01              0.11             -0.05           9.58799       68801
            -0.03              0.01             -0.22           -6.9126       68802
            -0.02              0.01             -0.24           26.0443       68803
            -0.01              0.08             -0.18            19.785       68804
             0.06               0.3              0.15           18.2379       68805
              0.2              0.67              0.69           19.5196       68806
              0.3              0.91              1.01           21.5289       68807
             0.27              1.16              1.37           18.1226       68808
            -0.34              1.49              1.86           1.60602       68809
            -1.43              1.58              2.18          -20.7174       68810
            -2.51              1.17              1.91           -40.347       68811
            -3.32              0.63              1.28          -58.0946       68812
            -3.92              0.19              0.73          -71.9679       68813
            -4.37             -0.03              0.47          -78.4439       68814
            -4.62             -0.01              0.58          -80.2671       68815
            -4.87             -0.01               0.6           -80.024       68816
            -5.17             -0.02              0.79          -79.9919       68817
            -5.36             -0.02              0.92          -78.8278       68818
            -5.49              0.11              1.18          -77.6167       68819
            -5.79               0.1              1.27          -76.0146       68820
            -6.09              0.08               1.2           -77.076       68821
            -6.32              0.12              1.19           -77.151       68822
            -6.43              0.21              1.31          -77.7325       68823
            -6.59              0.24              1.44          -75.7534       68824
            -6.61              0.27              1.49          -76.2785       68825
            -6.63              0.32               1.6          -75.4808       68826
            -6.61              0.42              1.75           -73.781       68827
            -6.52              0.51              1.79          -72.4897       68828
            -6.49              0.51               1.7          -71.9426       68829
             -6.4              0.54              1.82          -72.8782       68830
            -6.03              0.67              2.08          -70.5032       68831
            -5.42              0.93              2.26          -66.3429       68832
            -5.48              0.27              1.24          -72.9603       68833
               -5              0.62              1.48          -67.6132       68834
            -4.95              0.56               1.3          -72.1214       68835
            -4.97              0.81              1.69          -72.1946       68836
            -5.64              0.43              1.43          -72.3582       68837
            -5.84              0.44              1.59          -73.3628       68838
             -5.8              0.36              1.58          -73.4526       68839
            -5.83              0.05              1.18           -77.063       68840
             -6.1             -0.09              0.99          -80.3576       68841
            -6.39             -0.07              0.97          -80.1087       68842
            -6.61              0.14              1.17          -78.6319       68843
            -6.55              0.42              1.39          -75.9304       68844
            -6.72              0.44              1.38          -76.3372       68845
            -6.57              0.59              1.58          -75.7275       68846
             -6.2              0.66              1.73          -73.4976       68847
            -5.64              0.55              1.48          -73.4555       68848
            -4.52               0.5              1.15          -73.2788       68849
            -2.66              0.41              0.75          -70.9541       68850
            -1.04              0.22              0.29          -68.1483       68851
            -1.18              0.27              0.34          -70.2632       68852
            -1.83              0.46              0.68          -63.9998       68853
            -2.36              0.83              1.32          -59.0588       68854
            -2.66              1.85              2.79          -41.9154       68855
            -2.39              2.72              3.93           -27.128       68856
            -2.29               3.4              4.89          -20.0479       68857
            -2.43              4.24              5.85          -19.1428       68858
            -2.73              4.64              6.38          -17.8671       68859
            -3.13              5.27              7.07          -18.0725       68860
            -3.56              5.54              7.42          -19.4342       68861
            -4.02              5.89              7.93           -21.183       68862
             -4.5              6.17              8.33          -22.3319       68863
            -4.95              6.35               8.6          -24.1388       68864
             -5.1              6.49               8.8          -24.7468       68865
            -4.91              6.76              9.03          -22.7279       68866
            -5.14              6.84              9.16          -23.5914       68867
            -5.09              6.96              9.44          -23.3326       68868
            -5.15              7.01              9.59          -22.2989       68869
            -5.66              6.75              9.46          -25.1989       68870
            -5.62              6.67              9.32          -26.0811       68871
            -5.31              6.66              9.29          -22.2796       68872
            -5.01              6.37              9.03          -24.3062       68873
            -4.33              6.62              8.88          -22.4333       68874
            -4.54                 6              8.17          -22.7432       68875
            -3.86              5.46              7.41          -23.0744       68876
            -3.35              4.77              6.34          -21.2741       68877
            -2.63              4.13              5.42          -20.7714       68878
            -1.67              3.49              4.45          -17.9959       68879
            -0.89               2.6              3.24          -9.69009       68880
            -0.38              1.45              1.69          -9.23411       68881
            -0.16              0.78              0.87          -3.57164       68882
             0.07              1.64              2.09           4.63967       68883
             1.65              2.45              3.14           25.7472       68884
             3.21              2.24              2.81           46.1739       68885
             4.78              1.46              1.66           66.9636       68886
             5.64              0.56              0.33           83.8471       68887
             6.14              0.35              0.05           89.7204       68888
             6.83             -0.03             -0.34           93.9107       68889
             7.62             -0.06             -0.32           94.7619       68890
             8.29             -0.22              -0.5            96.089       68891
             8.91             -0.22             -0.41           95.5722       68892
             9.52             -0.26             -0.47            95.726       68893
             9.95             -0.25             -0.57            96.144       68894
            10.03             -0.29             -0.57           96.4069       68895
              9.9             -0.34             -0.51           96.3108       68896
              9.6             -0.32              -0.4             96.01       68897
             8.99             -0.32             -0.35            95.478       68898
              8.5             -0.26             -0.28           95.2803       68899
                8             -0.27             -0.32           95.5579       68900
             7.53             -0.22             -0.24           95.5467       68901
             7.48             -0.16             -0.09            94.935       68902
             7.71             -0.16             -0.22           94.3701       68903
             7.61             -0.18             -0.35           95.3208       68904
             7.63             -0.15             -0.41           95.2108       68905
             7.59             -0.11             -0.43           95.2563       68906
             7.67             -0.08             -0.42            96.518       68907
             7.91             -0.09             -0.49           96.2272       68908
             7.93             -0.02             -0.39           95.5453       68909
             7.61             -0.01             -0.33           95.2393       68910
             7.35             -0.01             -0.38           95.4811       68911
             7.15              0.02              -0.4           94.1441       68912
             6.31              0.02             -0.41           95.7438       68913
             5.66             -0.04             -0.33           96.5895       68914
             5.09             -0.11             -0.28           96.1033       68915
             4.55              -0.1             -0.27           96.0701       68916
             3.51              -0.6             -0.77           102.907       68917
             2.22             -0.99             -1.17           118.619       68918
             1.06             -0.93             -1.04           133.536       68919
             0.73             -0.77              -0.8           144.489       68920
             0.26             -0.66             -0.48           156.048       68921
             0.38             -0.36             -0.16           132.687       68922
             0.03             -0.19              0.08           186.949       68923
             0.02             -0.14              0.06           205.479       68924
            -0.01             -0.12              0.04           208.194       68925
             0.01             -0.09              0.05           162.017       68926
             0.01             -0.06              0.02           156.898       68927
                0             -0.03              0.04           164.497       68928
            -0.01             -0.04              0.07            189.39       68929
            -0.01             -0.02              0.11           168.561       68930
            -0.02             -0.07              0.05           181.769       68931
                0             -0.05              0.04           185.413       68932
             0.02             -0.06             -0.04           177.491       68933
             0.01             -0.03             -0.03           174.025       68934
                0                 0                 0            170.48       68935
             0.01                 0             -0.02           177.005       68936
                0                 0             -0.02           173.072       68937
             0.01              0.01              0.01           168.048       68938
            -0.01             -0.01              0.02           174.909       68939
                0             -0.01              0.01            175.79       68940
             0.03             -0.04              0.05            140.81       68941
            -0.01             -0.06              0.05           185.652       68942
             0.01             -0.04              0.01          -65.7252       68943
             0.01              0.01             -0.04          -21.9031       68944
            -0.02              0.06             -0.04          -43.7568       68945
                0              0.06             -0.04          -53.8785       68946
             0.01              0.06             -0.01          -37.4063       68947
             0.01              0.04             -0.03          -60.5999       68948
                0              0.02             -0.01          -85.9459       68949
            -0.01              0.01              0.02          -88.6383       68950
            -0.01             -0.03              0.05           233.098       68951
                0             -0.02              0.01          -37.7287       68952
            -0.01             -0.01             -0.06          -79.2344       68953
             0.01              0.03             -0.05           233.828       68954
            -0.01              0.02             -0.05           245.966       68955
            -0.03              0.03             -0.04           250.908       68956
                0              0.05             -0.02           237.982       68957
            -0.01              0.04             -0.04            259.44       68958
            -0.01              0.04             -0.03           265.511       68959
            -0.01              0.06             -0.06          -60.9481       68960
            -0.01              0.06             -0.05            248.96       68961
            -0.01              0.06                 0           235.281       68962
            -0.01              0.03             -0.02          -18.4157       68963
             0.01              0.04             -0.09           -13.494       68964
                0              0.06             -0.11          -17.8694       68965
                0              0.09             -0.06           5.41266       68966
                0              0.06             -0.07           5.41244       68967
            -0.01              0.05             -0.04           12.9172       68968
             0.01              0.04             -0.04           21.4363       68969
             0.02              0.04             -0.04            24.312       68970
             0.02              0.03             -0.03           20.7917       68971
                0              0.03              0.01           22.5865       68972
            -0.01                 0              0.02             14.72       68973
                0                 0             -0.01             14.72       68974
             0.01              0.01             -0.01           16.1974       68975
             0.02              0.02             -0.05            29.392       68976
                0              0.05             -0.05           27.5453       68977
             0.01              0.07             -0.05           23.7351       68978
                0              0.05             -0.05          -18.3418       68979
                0              0.06             -0.03          -34.0579       68980
            -0.02                 0             -0.04           222.468       68981
            -0.03              0.01              0.01          -81.1505       68982
            -0.01              0.01             -0.05            264.56       68983
            -0.02              0.03                 0           255.668       68984
                0              0.03             -0.01           244.853       68985
                0              0.05             -0.06           233.034       68986
             0.01              0.06             -0.05           216.209       68987
             0.03              0.07             -0.05            227.25       68988
             0.01              0.05             -0.07           228.443       68989
            -0.01              0.05             -0.02           225.582       68990
            -0.01              0.03             -0.01            226.89       68991
             0.02              0.06             -0.04           227.294       68992
                0              0.06             -0.02           223.767       68993
            -0.02              0.02             -0.01           230.699       68994
             0.03              0.03             -0.07           221.942       68995
             0.01              0.08             -0.05           221.081       68996
            -0.01              0.05             -0.04           218.412       68997
             0.02              0.05              -0.1           225.773       68998
             0.02               0.1             -0.06           220.875       68999
            -0.01              0.07              0.01           236.742       69000
             0.01             -0.01              0.06          -58.6715       69001
            -0.01             -0.05              0.03          -68.6787       69002
                0             -0.04              0.01          -59.5035       69003
                0             -0.03             -0.01          -50.5386       69004
             0.02                 0             -0.12          -42.5383       69005
                0              0.07             -0.12          -43.1685       69006
             0.02              0.12             -0.08          -4.76218       69007
             0.01              0.14             -0.04          -4.76218       69008
                0               0.1             -0.05          -4.26394       69009
             0.01              0.06              0.03          -8.00209       69010
            -0.01             -0.02               0.1          -27.6319       69011
            -0.02              -0.1              0.07          -33.8473       69012
            -0.03             -0.07              0.08          -40.3161       69013
            -0.01             -0.05              0.07          -31.8088       69014
             0.02             -0.01                 0          -23.8222       69015
             0.02              0.01             -0.02          -1.15544       69016
            -0.01                 0              0.06          -9.48897       69017
                0             -0.03              0.02          -7.13655       69018
                0             -0.01                 0          -10.2654       69019
             0.01                 0              0.07           10.4584       69020
             0.02             -0.02              0.17           37.7319       69021
             0.01             -0.06              0.17           22.1856       69022
            -0.02              -0.1              0.02           31.0402       69023
            -0.02             -0.04             -0.03           20.4269       69024
            -0.01             -0.03             -0.12          -3.02809       69025
                0              0.04             -0.07           31.4795       69026
            -0.01              0.03             -0.01           189.026       69027
            -0.02                 0             -0.01            238.38       69028
                0              0.03              0.06           29.2471       69029
             0.01                 0              0.08           54.4915       69030
                0             -0.01              0.14           72.1782       69031
             0.01             -0.04              0.13           37.2521       69032
                0             -0.07              0.03           39.1484       69033
            -0.02             -0.04             -0.06           -2.5905       69034
             0.01             -0.03             -0.12           149.661       69035
                0                 0              -0.1           135.225       69036
            -0.01              0.04              0.04           94.9893       69037
             0.01                 0              0.04           79.3173       69038
                0             -0.02              0.02           80.7093       69039
            -0.03             -0.02              0.06           134.995       69040
            -0.03             -0.02              0.14           158.684       69041
            -0.02             -0.05              0.11           83.5102       69042
            -0.01             -0.05              0.06           105.743       69043
                0             -0.05              0.05           82.2664       69044
                0             -0.03              0.02           132.234       69045
             0.03             -0.03             -0.05           153.523       69046
                0             -0.01              0.05           134.131       69047
            -0.03             -0.01              0.15           143.326       69048
            -0.01             -0.06              0.09           150.669       69049
            -0.03             -0.08              0.09           185.026       69050
            -0.03             -0.05              0.17           150.372       69051
            -0.02             -0.07              0.14           181.974       69052
                0             -0.06              0.08           138.718       69053
            -0.06             -0.07              0.08           202.449       69054
                0             -0.08              0.04           205.639       69055
             0.02             -0.03             -0.02           63.6855       69056
                0             -0.03             -0.07           188.222       69057
             0.01              0.02              0.03           189.721       69058
             0.01              0.01             -0.04           117.885       69059
            -0.01             -0.02                 0           136.566       69060
            -0.02                 0              0.14           140.016       69061
            -0.02             -0.05              0.12           76.0015       69062
            -0.01             -0.05              0.09           64.1758       69063
             0.01             -0.04              0.06           50.4817       69064
            -0.01             -0.04              0.01           51.7747       69065
             0.03             -0.01             -0.03           32.3554       69066
             0.01              0.03             -0.06           85.8385       69067
            -0.03              0.02              0.01           143.313       69068
            -0.02                 0             -0.03            156.63       69069
             0.01              0.02             -0.04           118.567       69070
            -0.01              0.02              0.01           118.692       69071
            -0.02             -0.02              0.06           93.5473       69072
             0.01             -0.02             -0.02          -51.2754       69073
             0.04              0.04             -0.07           52.2588       69074
             0.03              0.04             -0.08          -16.6129       69075
             0.01              0.05             -0.05           10.8631       69076
            -0.02              0.04             -0.04          -17.3034       69077
                0              0.05              0.01           43.1813       69078
             0.03              0.05             -0.03           41.4595       69079
             0.04              0.01              -0.1           48.9719       69080
                0              0.04                 0           84.3422       69081
             0.01                 0                 0            69.105       69082
             0.02              0.05                 0           38.5696       69083
            -0.03             -0.02             -0.02           14.9649       69084
            -0.01              0.04             -0.03            94.575       69085
             0.04              0.05             -0.12           88.3055       69086
                0              0.08             -0.06           45.4325       69087
            -0.01              0.07             -0.02           62.3885       69088
             0.04              0.08             -0.08           41.4595       69089
             0.03              0.09             -0.09           119.789       69090
            -0.01              0.04              0.02           56.4601       69091
            -0.05             -0.03              0.07           60.3849       69092
            -0.02             -0.07              0.05          -16.1349       69093
            -0.03             -0.09              0.03           86.1264       69094
                0             -0.08              0.01           228.443       69095
             0.02             -0.03             -0.02           225.059       69096
             0.01                 0              0.01            239.16       69097
            -0.01                 0              0.02           71.2585       69098
             0.03              0.02             -0.04           40.9397       69099
             0.03              0.04             -0.07           77.1599       69100
                0              0.03             -0.05           76.5184       69101
            -0.05              0.07              0.04           15.4669       69102
             -0.2              0.09              0.16          -76.8886       69103
             -0.1              0.07              0.33          -41.7224       69104
            -0.25             -0.04              0.26          -60.3782       69105
            -0.26              0.09              0.46          -53.1438       69106
            -0.24              0.04              0.32           -38.555       69107
            -0.22              0.09               0.3          -35.7677       69108
            -0.17              0.03              0.17          -39.2459       69109
             -0.3              0.11              0.32          -52.9812       69110
            -0.18              0.18              0.33          -32.3456       69111
            -0.37              0.14              0.32          -48.2755       69112
            -0.09              0.06              0.13          -28.2013       69113
            -0.01                 0             -0.03           38.4793       69114
             0.07              0.01             -0.01           62.3507       69115
             0.32              -0.1             -0.19           114.375       69116
             1.57             -0.16             -0.47           112.954       69117
             2.04              0.18               0.1           94.8845       69118
             1.74              0.47              0.46            79.203       69119
             1.93              0.46              0.42           79.2332       69120
              2.7              0.59              0.51           81.5809       69121
             3.15              0.52              0.29           82.6966       69122
             3.44              0.13             -0.27           92.5549       69123
             2.98             -0.21             -0.69           100.583       69124
             2.25             -0.65             -1.15           113.762       69125
             2.01             -0.57             -1.07           117.129       69126
             2.15             -0.21             -0.62           107.311       69127
             1.82              0.07             -0.14           98.0941       69128
             1.38              0.35              0.32           82.1876       69129
             1.08              0.53              0.52           65.4806       69130
             0.95              0.79              0.98           47.6041       69131
             0.48              0.97               1.4           29.2545       69132
            -0.13              1.09              1.67           8.85564       69133
            -0.71              0.73              1.15          -14.8017       69134
            -0.08              0.08              0.05           -23.288       69135
            -0.03              0.05              0.03           7.51642       69136
             0.11             -0.26             -0.43           157.723       69137
            -0.05             -0.39             -0.63           182.998       69138
            -0.01             -0.08             -0.37           180.285       69139
            -0.24              0.21             -0.08          -21.3681       69140
            -1.02              0.56              0.63          -45.5956       69141
            -3.09              0.54                 1           -67.333       69142
            -4.04             -0.15              0.23          -82.4013       69143
            -4.49             -0.38              0.21          -83.8948       69144
            -4.99             -0.53              0.24           -86.168       69145
            -5.59             -0.67              0.18          -89.1264       69146
            -5.92             -0.43              0.45          -86.8607       69147
            -6.13             -0.33              0.51          -86.4326       69148
            -5.93             -0.17              0.65          -82.3565       69149
            -5.26             -0.03               0.6           -80.905       69150
            -5.52             -0.17              0.38          -84.1399       69151
            -5.73             -0.26              0.43          -86.6574       69152
             -5.6             -0.19              0.57          -82.5876       69153
            -4.91             -0.26              0.31          -83.7444       69154
            -4.96              -0.5             -0.04          -89.1614       69155
            -5.14             -0.72             -0.41           268.159       69156
            -5.16             -0.45              -0.1           269.702       69157
            -5.38              0.15              0.64          -82.9114       69158
            -5.62              0.58               1.2          -77.7934       69159
            -5.74              0.39              0.95          -78.1914       69160
             -5.8              0.11              0.59          -81.2351       69161
            -5.93              0.02              0.51          -83.4181       69162
            -6.17             -0.01               0.5          -83.6726       69163
            -6.44             -0.06              0.44          -84.2459       69164
            -6.73             -0.13              0.41          -85.2311       69165
            -7.03             -0.02              0.51          -84.1074       69166
             -7.4             -0.11              0.36          -85.1681       69167
            -7.49              0.01              0.37          -85.4428       69168
            -8.02              0.11              0.43          -83.6488       69169
            -8.47               0.1              0.43          -83.5797       69170
            -8.64              0.15               0.4          -83.3618       69171
             -8.7              0.16              0.37          -84.3871       69172
             -8.7              0.11              0.33          -84.8723       69173
            -8.49               0.2               0.3          -84.6131       69174
            -8.37              0.34              0.33          -84.2974       69175
             -8.1              0.33              0.17          -83.8592       69176
            -8.16              0.39               0.2          -84.4235       69177
            -8.17              0.32              0.17          -84.8943       69178
               -8              0.23              0.21          -85.0779       69179
            -7.71              0.27              0.32          -83.9369       69180
            -7.42              0.25              0.24            -84.15       69181
            -6.84               0.2              0.15          -84.5749       69182
            -5.69              0.17              0.06          -86.2337       69183
            -3.55               0.3              0.05          -85.5146       69184
            -1.46              0.27             -0.12           -86.133       69185
            -1.23              0.24             -0.09          -86.6312       69186
            -1.78              0.13             -0.12          -87.1748       69187
            -2.11               0.2              0.13           -82.199       69188
            -2.45               0.4              0.69          -75.0055       69189
            -2.54              1.29              1.87          -54.8102       69190
            -2.42              2.08              2.87          -38.4265       69191
            -2.24              2.54              3.52          -29.0619       69192
            -2.35              2.88              4.03          -25.7752       69193
            -2.55              3.27              4.53          -24.0736       69194
            -2.78              3.58              4.94          -23.7519       69195
            -2.81              3.73              5.28          -22.9463       69196
            -2.91               3.8              5.47          -22.9188       69197
            -2.91              3.73              5.57          -23.1909       69198
            -3.28               3.9              5.98          -23.0863       69199
            -3.68              4.32              6.78          -24.1964       69200
            -3.92              4.66              7.48          -23.6789       69201
            -4.03              4.89              7.86          -23.5808       69202
            -4.14              4.92              8.12          -23.7686       69203
            -3.93              4.75              7.93          -22.0051       69204
            -3.65              4.35              7.32           -22.835       69205
             -3.4              4.01              6.81          -21.6527       69206
            -3.26              3.85              6.54          -22.2833       69207
            -3.01              3.74              6.46          -21.8229       69208
            -2.91              3.56              6.24           -22.212       69209
            -2.92              3.47              6.33          -23.1689       69210
            -3.02              3.38              6.29          -22.4561       69211
            -3.15              3.43              6.36           -23.269       69212
             -3.2              3.32              6.28          -24.3718       69213
            -3.15              3.43              6.39           -24.595       69214
            -3.29              3.38               6.4          -24.7275       69215
            -3.18              3.52              6.58          -24.1183       69216
            -3.06              3.65              6.72           -21.905       69217
            -3.25               3.9              7.07          -22.1534       69218
            -3.71              3.92              7.11          -24.6104       69219
             -3.5              3.91              7.07          -23.9805       69220
             -3.6              4.02              7.09          -23.7175       69221
            -3.89              4.19              7.35          -24.6916       69222
            -3.74              4.34              7.51          -23.4568       69223
            -3.66              4.57              7.83          -21.7646       69224
            -3.43              4.75              7.84          -18.0411       69225
            -3.31              4.93              8.01          -19.2397       69226
            -3.17              4.92              7.84          -17.9599       69227
            -3.05              5.01              7.73          -17.7478       69228
            -2.97              4.75              7.45          -17.9535       69229
            -2.75              5.08              7.73          -16.2196       69230
            -2.42              5.12              7.64          -13.7138       69231
            -2.69              5.01              7.46          -14.8132       69232
            -2.13              4.98              7.23          -12.2406       69233
            -1.58              5.44              7.66          -7.72989       69234
            -1.64               5.2              7.37          -7.28758       69235
            -1.49              5.41              7.48          -5.92454       69236
            -0.79              5.13              7.11          -2.43259       69237
            -0.83              4.73              6.68         0.0924682       69238
            -0.08              3.99              5.61           3.73298       69239
            -0.33              3.56              4.98           1.62853       69240
            -0.32              2.87              4.04          0.848817       69241
            -0.17              2.31              3.28          -1.82419       69242
            -0.31              1.83               2.7        -0.0279999       69243
             -0.2              1.43              1.98          -1.21391       69244
            -0.07              1.02              1.34           5.41028       69245
             -0.1              0.62                 1           3.75069       69246
            -0.06              0.75              1.25           9.84503       69247
            -0.05              0.88              1.48           6.63934       69248
            -0.08              1.28              1.98           4.84007       69249
            -0.05              1.89              2.78           4.46883       69250
             0.12              2.39              3.43           10.9375       69251
              0.2              2.51              3.65           11.1102       69252
            -1.24              2.39              3.75          -6.86383       69253
            -3.94              1.62              3.02           -41.902       69254
            -6.07              0.42              1.51           -70.089       69255
            -7.18             -0.02              0.99          -79.8451       69256
            -8.55              -0.3              0.78          -83.5677       69257
            -9.81             -0.61              0.56          -85.2632       69258
           -10.64             -0.75              0.53            -86.45       69259
           -11.12             -0.81              0.45          -86.8178       69260
            -11.6              -0.9              0.28          -87.3912       69261
           -11.86             -1.05              0.05          -88.4406       69262
           -11.93             -1.11              -0.1          -89.2481       69263
           -10.76             -1.03             -0.22          -89.8154       69264
            -10.4             -0.86             -0.24          -89.7139       69265
           -10.25             -0.83             -0.27          -89.7654       69266
           -10.15             -0.82             -0.37          -89.9913       69267
           -10.15             -1.14             -0.63           268.889       69268
            -9.96             -1.22             -0.73           267.405       69269
            -9.77             -1.16             -0.69           267.266       69270
            -9.16             -1.14             -0.78           266.617       69271
            -8.58             -0.93             -0.54           267.741       69272
            -7.58             -0.77             -0.71           266.665       69273
            -7.06             -0.66             -0.64           267.617       69274
            -6.68             -0.66             -0.78           266.533       69275
            -6.73             -0.73             -0.86           264.254       69276
            -6.81             -0.85             -0.86           265.659       69277
            -6.67             -0.95             -0.73            266.15       69278
            -6.47             -1.02              -0.7           265.262       69279
            -6.11             -0.93             -0.58           266.354       69280
            -5.26             -0.73             -0.47           266.148       69281
            -4.51             -0.32              0.05          -89.7252       69282
            -3.78               0.5                 1          -76.4443       69283
            -1.96              1.62              2.31          -49.2727       69284
            -0.81                 2              2.64           -18.862       69285
            -0.42              2.03              2.63          -5.51327       69286
            -0.29              2.23              2.91          -0.91005       69287
            -1.31               2.5              3.36          -10.8288       69288
             -0.8              3.57              4.95          -3.94926       69289
            -0.92              3.98              5.74           -2.3892       69290
            -0.88              4.03              6.09          -1.75818       69291
            -0.89               3.9              6.05           -4.3237       69292
            -0.93              3.55              5.68          -5.20831       69293
             -0.8              2.98              5.03           -5.6636       69294
             0.08              2.36              3.97            5.0315       69295
             0.15              1.43              2.54           8.54385       69296
            -0.05              0.51              1.06           14.1583       69297
            -0.02              0.06              0.35           11.1128       69298
            -0.19              1.09              2.03         -0.361446       69299
            -0.74              1.89              3.44          -6.94386       69300
            -0.93               2.5               4.4           -8.6649       69301
            -0.92              2.75              4.67          -7.61675       69302
            -1.09              3.06              5.25          -7.95404       69303
            -1.13              3.31              5.65           -7.6962       69304
            -0.78              3.28              5.49          -4.59428       69305
            -0.59              3.17              5.34          -3.07094       69306
            -0.65              2.98              5.15          -2.87968       69307
            -0.72              2.92              5.07          -3.70548       69308
            -0.72              3.19              5.42          -4.13031       69309
            -0.78              3.45              5.89          -3.63519       69310
            -0.98               3.5              6.04          -4.92987       69311
            -0.94              3.92              6.39           -4.1165       69312
            -0.92               3.9              6.18          -4.76807       69313
            -0.94              3.96              6.13          -3.78995       69314
               -1              4.07               5.9          -4.54123       69315
            -1.07              4.19              5.78          -5.91341       69316
            -0.86              4.39              6.03          -3.38978       69317
            -0.88              4.28              6.04          -2.84039       69318
            -0.85               4.3              6.22          -2.33952       69319
            -0.76              4.24              6.29          -1.82598       69320
            -0.67              4.35              6.49           -1.1538       69321
            -0.65              4.24              6.51          -1.16599       69322
             -0.8              4.43              6.79          -1.65945       69323
            -0.73              4.57              7.17          -1.09481       69324
            -0.54              4.48              7.23          0.949862       69325
            -2.14              4.16              7.19          -11.8449       69326
            -0.78              4.33              7.26          -4.52099       69327
            -0.63              3.89              6.68          -1.14759       69328
             -0.5              3.34              5.97         -0.850972       69329
            -0.52              2.84              5.21          -1.17384       69330
            -0.39              1.93              3.89          -1.92244       69331
             -0.2              1.14              2.55           0.38886       69332
            -0.11              0.25              1.11           13.3352       69333
            -0.02              0.44              1.38            6.1697       69334
             0.32              0.88              2.09           9.45703       69335
             0.92               0.8              1.83           26.1672       69336
             1.55              0.76              1.51           47.4927       69337
             1.74              0.68              1.27           55.4045       69338
             2.27              0.61              1.02           67.9842       69339
             3.48              0.53              0.62           82.6909       69340
             4.52              0.51              0.39            84.833       69341
             4.64             -0.04             -0.47           96.3323       69342
             5.48              0.64              0.32            87.081       69343
             5.83               0.8              0.27           88.0496       69344
             6.56              0.85              0.09           88.8986       69345
             6.92              0.99               0.1           87.6493       69346
             7.12              1.16               0.3           86.2993       69347
             7.18              1.17              0.35           86.8194       69348
             7.62               1.1              0.09           88.4608       69349
             8.11              1.75              0.56           85.6227       69350
             8.75              1.52              0.05            88.489       69351
             9.21              1.65              0.02           88.2676       69352
             9.42               1.8              0.19           88.1335       69353
             9.91               1.9             -0.07           88.6481       69354
            10.11              1.82             -0.35           89.3891       69355
            10.26              1.96             -0.46           90.5756       69356
            10.73              1.94             -0.56           90.6816       69357
            10.72              2.24             -0.14           89.2161       69358
            10.97              2.06             -0.36           90.8949       69359
            11.09              2.15             -0.25           89.7182       69360
            10.77              2.25             -0.16           88.1283       69361
            10.67              2.24             -0.31           89.0952       69362
            10.36              2.27             -0.33           88.8898       69363
             9.88              2.17             -0.32           89.0094       69364
             9.18              2.17             -0.11           89.0811       69365
              8.7              1.99             -0.18           87.1839       69366
             7.81              1.88             -0.27           88.4919       69367
             7.14              1.74              -0.3           88.4002       69368
             6.01              1.88              0.28           83.5436       69369
             5.45              2.54              1.32           75.5154       69370
             4.38              2.98              2.13           63.5924       69371
             3.02              3.68              3.17           44.8913       69372
             0.27              4.15              4.64           12.1926       69373
            -1.26              3.96              4.95          -3.31019       69374
            -2.22              4.08              5.23          -16.0855       69375
            -2.16              3.63              4.86          -17.2545       69376
             0.09              4.28              5.14           2.20374       69377
             2.23              4.08              4.76           25.3493       69378
             3.19              3.76              4.36           34.9332       69379
             3.56              3.38              4.11           40.0058       69380
             3.88              3.55              4.57           42.6521       69381
             4.16              3.52              4.63           45.4307       69382
             4.59              3.17              4.42           49.5045       69383
             4.54              3.01              4.49           49.4625       69384
              4.7              2.92              4.65           48.3852       69385
             4.98              2.89              4.72           51.4563       69386
             5.33              3.17              5.03            49.193       69387
             5.66              3.34              5.38           51.4543       69388
             6.08              3.49              5.57           51.3622       69389
             6.12              3.64              5.91           50.8947       69390
             5.97              3.54              5.87           51.2904       69391
             5.76              3.49              5.74           51.5294       69392
             5.62              3.47              5.67           50.0895       69393
             5.25              3.15              5.15           50.0442       69394
             4.44               2.4              4.22           50.7657       69395
             4.65              1.71              3.32           58.6221       69396
             5.39              1.06              2.33           70.1693       69397
              6.3              0.46              1.23           81.3864       69398
             6.98             -0.13              0.28           89.4583       69399
             7.55             -0.01              0.53           90.7963       69400
             8.79              0.23              0.36           90.7073       69401
             9.95              0.19             -0.26           92.5027       69402
            10.67              0.36             -0.39           93.7433       69403
            11.24              0.52             -0.36           93.8917       69404
            11.47              0.64             -0.34           93.4886       69405
            11.42              0.59             -0.38           92.7564       69406
            11.39              0.66             -0.49           93.7514       69407
            11.48              0.54             -0.85           94.5369       69408
            11.71              0.55             -0.75           94.9195       69409
            11.35              0.52             -0.72           95.1696       69410
             10.7              0.38             -0.95           95.7392       69411
             8.18              0.21             -0.73           96.0909       69412
             4.92              -0.4             -1.07           99.6753       69413
             2.04             -0.19             -0.36           101.652       69414
              0.9             -0.13             -0.13           101.739       69415
              0.9              -0.2             -0.16           109.346       69416
             2.21             -0.31             -0.51           107.416       69417
             4.07             -0.33             -0.86           104.813       69418
             5.62             -0.43              -1.3           105.244       69419
             6.78             -0.33             -1.45           102.806       69420
             7.93             -0.36             -1.65           102.756       69421
             9.12             -0.25             -1.74           101.002       69422
             9.56             -0.41              -2.2           102.558       69423
            10.29              -0.4             -2.54           103.589       69424
            10.82              -0.5             -3.18           104.774       69425
             11.5             -0.23              -3.1           104.521       69426
             12.2             -0.29             -3.23           103.503       69427
            12.55             -0.43             -3.37           105.117       69428
            12.45             -0.46             -3.44           104.463       69429
             12.5             -0.41             -3.41           105.629       69430
             12.7             -0.46             -3.63           104.589       69431
            12.33             -0.34             -3.44           104.457       69432
            10.89              -0.4             -3.16           105.289       69433
             9.03             -0.42             -2.81           106.195       69434
             7.28              -0.3             -2.11           106.487       69435
             5.57             -0.06             -1.53           106.202       69436
             3.84             -0.13             -1.21           105.597       69437
             1.72              0.25             -0.15           95.1857       69438
             1.16              0.05             -0.25           102.753       69439
             2.17              -0.1             -0.62           101.837       69440
             3.62             -0.04             -0.88           102.457       69441
             5.16             -0.16             -1.39           104.774       69442
             6.24             -0.06             -1.41           101.468       69443
             6.95             -0.04              -1.7           102.928       69444
             7.21             -0.06             -1.85            102.38       69445
             7.33             -0.05             -1.92           103.615       69446
             7.67              0.04             -2.06           103.662       69447
             8.09               0.2             -2.12           103.412       69448
             8.47              0.27             -2.18           102.852       69449
             8.81              0.22             -2.42           103.104       69450
             8.95              0.11             -2.62           104.143       69451
             8.57              0.06             -2.73            105.02       69452
             8.27              0.16             -2.56           104.915       69453
             7.73              0.34             -2.28           103.878       69454
             6.73              0.51             -1.75           102.161       69455
             6.05              0.98             -0.82           96.7572       69456
             5.39              1.25             -0.26           90.6694       69457
             3.95              1.18              0.07           85.6415       69458
             2.01              0.74              0.02           82.2203       69459
             0.79               0.4             -0.05           79.0138       69460
             1.32              0.52              0.17           79.6934       69461
             2.43              1.47              1.29           63.2531       69462
             1.46               2.5              2.99           35.8024       69463
             -0.1              3.05              4.03            14.013       69464
            -1.38              3.58              4.86          -6.08858       69465
            -2.59              3.98               5.5          -17.2403       69466
            -3.12              4.16              5.79          -21.4066       69467
            -3.07              4.41              6.08          -21.7962       69468
            -3.07               4.6               6.3          -19.7764       69469
            -3.15               4.7              6.46          -20.6505       69470
            -3.05              4.39              5.89          -21.2311       69471
            -2.13              3.69              4.77          -19.4567       69472
            -1.22              2.59              3.05          -15.6201       69473
            -0.53              1.28              1.05          -11.8525       69474
            -0.27              1.32               1.1          -4.14314       69475
             0.73              1.71              1.53           21.4541       69476
             1.89              1.92              1.75           42.5814       69477
             3.12              1.84              1.44           60.0795       69478
             4.29              1.75              1.18           70.9923       69479
             5.27              1.79              0.97           76.6895       69480
             6.13              2.08              1.09            77.225       69481
             6.95              2.09              0.86           79.8694       69482
             7.55                 2               0.5           82.8033       69483
             7.86              1.88              0.21           85.1174       69484
             7.72              1.51             -0.27           88.1663       69485
             7.28              1.05             -0.63           91.4283       69486
             6.22              0.46             -1.02           96.4731       69487
                4              0.11             -0.94           99.9083       69488
             1.79              0.01             -0.56           103.492       69489
             0.92              0.05             -0.28           102.918       69490
              0.4              0.04              -0.2           101.442       69491
            -0.01              0.06             -0.07           60.3339       69492
             0.07              0.05             -0.07           77.7435       69493
            -0.02              0.04             -0.02          -38.9033       69494
                0              0.04             -0.02          -59.7943       69495
            -0.02              0.03             -0.01          -56.7515       69496
            -0.01              0.05             -0.01          -51.3024       69497
            -0.02              0.04             -0.01          -58.1545       69498
                0              0.01             -0.01          -61.5206       69499
            -0.01              0.01             -0.03           -62.073       69500
             0.07              0.01             -0.01          -30.4948       69501
             0.12                 0             -0.01           93.8449       69502
                0              0.03             -0.02           28.6882       69503
            -0.01              0.06             -0.03          -24.3738       69504
                0              0.05             -0.04          -24.7298       69505
            -0.01              0.05             -0.03          -30.3713       69506
                0              0.04             -0.05           167.279       69507
            -0.01              0.03                 0          -60.1084       69508
            -0.01                 0              0.03          -58.8161       69509
            -0.02              0.01             -0.02          -41.0856       69510
             0.01              0.05             -0.07           192.918       69511
             0.28              0.05             -0.12            123.29       69512
             1.56             -0.03             -0.43           105.785       69513
             3.33              0.05             -0.55           101.143       69514
              4.2              0.45             -0.06           92.6893       69515
             4.43              1.09               0.9           82.3555       69516
              4.3               1.9              2.13           69.6369       69517
             3.91              2.91              3.49           54.0371       69518
             2.88              3.81              4.89           38.2002       69519
             2.65              4.32              5.67           29.8381       69520
             2.98              4.77              6.33            28.611       69521
             3.17              5.19              6.99           27.8764       69522
             3.35              5.58              7.51           29.5202       69523
             3.52              5.83              7.85           28.8161       69524
             3.68               6.1              8.14           29.2039       69525
             3.91              6.29              8.45           29.3117       69526
              4.1               6.5              8.64           29.5782       69527
             4.26              6.55              8.69           30.1512       69528
             4.25              6.69              8.93           30.0071       69529
             4.23              6.84               9.1           29.9178       69530
             4.06              6.96               9.3           28.3689       69531
             4.05              7.05              9.51           27.3655       69532
             4.17              7.14              9.64           27.7485       69533
             4.08              7.15              9.77           27.5621       69534
             4.13              7.25              9.95           27.0159       69535
             4.08              7.29             10.08           26.5779       69536
             4.18              7.28             10.19           26.7498       69537
             4.06              7.28             10.23           26.6211       69538
             4.06              7.28              10.3           26.0575       69539
             4.03               7.1             10.23           26.1019       69540
             3.91              7.01             10.22           25.6268       69541
             3.87              6.85             10.08           26.3328       69542
             3.87              6.34              9.75           26.8613       69543
             3.78              6.28              9.57           26.5684       69544
             3.68              6.18              9.47           25.9481       69545
             3.34              6.12              9.41           24.9018       69546
             3.47              5.74              8.95            25.868       69547
             3.36              5.62              8.76           26.7261       69548
             3.71               5.6               8.6           28.1773       69549
              4.3              5.62              8.43           30.3933       69550
             4.62              5.61              8.35           33.0438       69551
              4.7              5.58              8.32           34.4104       69552
             4.31              5.65              8.41           32.9149       69553
             3.89              5.79              8.45           30.3169       69554
             3.52              5.87              8.47           27.7511       69555
             3.13              5.64              8.26           26.0331       69556
             2.63              5.19              7.68           24.3058       69557
             2.25              4.61              6.79           23.3082       69558
             1.79              3.58              5.26           23.5861       69559
              1.4              2.53              3.69           25.1234       69560
             0.79              1.27              1.92           26.8659       69561
                0             -0.06              0.24            27.204       69562
                0             -0.12              0.17           12.9166       69563
             0.01             -0.12              0.05           128.036       69564
             0.02             -0.09              0.05           128.728       69565
                0             -0.07              0.07           108.267       69566
                0             -0.06              0.06           126.635       69567
                0             -0.04              0.06            116.57       69568
            -0.01             -0.04              0.06           110.254       69569
             0.01             -0.04                 0           137.696       69570
             0.02             -0.01             -0.02           14.9734       69571
                0              0.01             -0.01           116.353       69572
             0.01              0.02              0.05           7.25145       69573
             0.02              0.01              0.09           -1.1282       69574
             0.02              0.05              0.05          0.895164       69575
             0.04              0.09              0.06            13.288       69576
                0              0.04             -0.03           39.5289       69577
                0              0.06              0.02      -3.21808e-05       69578
             0.02              0.07              0.07           8.46324       69579
             0.11              0.02              0.08           34.2982       69580
                0              0.02              0.09           11.5916       69581
            -0.02                 0              0.02          -24.7297       69582
            -0.01              0.05              0.07          -3.94215       69583
            -0.01                 0              0.05           14.9734       69584
            -0.01             -0.02              0.02           144.234       69585
            -0.01             -0.01                 0           153.447       69586
             0.09              0.12               0.1           41.3805       69587
             0.13              0.22              0.17           39.8599       69588
                0              0.06             -0.04           48.8969       69589
             0.01              0.03             -0.05           142.455       69590
                0              0.03             -0.02          -18.0629       69591
                0              0.02             -0.04           -81.218       69592
             0.02              0.04                 0          -15.8598       69593
                0              0.03              0.03          -3.73573       69594
             0.02              0.02             -0.03          -25.3305       69595
                0              0.08              0.08          -28.6227       69596
             0.01              0.04              0.03          -8.24153       69597
             0.04               0.1              0.08           1.96507       69598
             0.07              0.13              0.14           12.3683       69599
             0.01              0.01             -0.01          -4.54012       69600
            -0.01                 0             -0.01          -52.1614       69601
            -0.01                 0             -0.02          -77.0285       69602
             0.04              0.06              0.03          -49.9849       69603
             0.02              0.06              0.04          -21.2034       69604
                0              0.01              0.01          -49.8567       69605
             0.08              0.11              0.09           8.55119       69606
             0.57              0.84              1.03           30.4668       69607
             1.65              1.77              2.19           38.0772       69608
             3.33              2.07              2.33           52.8289       69609
             4.95               1.4              1.16           72.4682       69610
             6.18              0.78              0.15           85.8918       69611
             7.12              0.38             -0.66           93.6787       69612
             8.19              0.28             -0.95           96.2141       69613
             9.17              0.24             -1.13           97.5857       69614
               10              0.17             -1.31           98.1324       69615
            10.63              0.15             -1.52           98.2935       69616
            11.11              0.16             -1.65           98.7172       69617
            11.49              0.31             -1.48           98.0741       69618
            11.67              0.31             -1.52           97.7407       69619
            11.87              0.33             -1.56           97.8316       69620
            12.22              0.37             -1.57           97.6067       69621
             12.5              0.31             -1.72           97.9209       69622
            12.64              0.34             -1.67           97.8417       69623
            12.79              0.32              -1.7           97.8008       69624
            13.04              0.23             -1.79           98.1241       69625
             13.2              0.29             -1.69           98.0021       69626
            13.23              0.31              -1.7           97.5463       69627
            13.58              0.26             -1.82           98.1222       69628
            13.79              0.29             -1.86           97.9774       69629
            13.97              0.34             -1.83           97.8648       69630
            14.09              0.41             -1.83           97.6914       69631
            14.23              0.38             -1.86           97.8128       69632
            14.25              0.34             -1.83           97.6644       69633
            14.28              0.28             -1.92           97.9173       69634
            14.21              0.29             -1.75           97.7546       69635
            14.21              0.24             -1.78           97.7847       69636
            14.36              0.29             -1.74           97.5175       69637
            14.37              0.23             -1.81           97.6729       69638
            14.37              0.15             -1.79           97.8921       69639
             14.5              0.07             -1.88           98.1524       69640
            14.67              0.05             -1.86           98.1583       69641
            14.78             -0.08             -2.08           98.6112       69642
            14.96             -0.27             -2.29           99.5589       69643
            15.05             -0.45             -2.57           100.506       69644
            14.98             -0.94             -3.29           102.719       69645
             14.8             -1.26             -3.62           104.698       69646
            14.74             -1.25             -3.54           105.029       69647
            14.66             -1.26             -3.63           105.172       69648
            14.52             -1.21              -3.6           105.226       69649
            14.23             -1.16              -3.5           105.069       69650
            13.96             -1.22             -3.57           105.433       69651
            13.77             -1.56             -4.09           107.147       69652
            13.36             -2.13             -4.89            110.45       69653
            12.42             -2.98             -6.06           115.759       69654
            11.01             -3.91                -7           122.557       69655
              9.3             -4.79             -7.91           130.745       69656
             8.16             -5.36             -8.55           137.841       69657
             7.58             -5.84             -9.16           142.891       69658
             7.24             -6.19             -9.49           145.992       69659
             6.87             -6.51             -9.88           148.687       69660
              6.8              -6.7            -10.07           150.159       69661
             6.73             -6.74            -10.25           150.727       69662
             6.75             -6.81            -10.34           151.162       69663
             6.94             -6.89            -10.45           150.789       69664
              7.1             -7.01            -10.65           150.506       69665
             6.91             -7.11            -10.81           151.342       69666
             7.01             -7.18            -10.96           151.495       69667
             7.09             -7.23            -10.96           151.362       69668
             7.31             -7.19            -11.01           150.753       69669
             7.46             -7.22               -11           150.064       69670
             7.48             -7.33            -10.96           150.121       69671
             7.41             -7.39            -10.93           150.251       69672
             7.28              -7.5            -10.98           150.935       69673
             7.39             -7.52            -10.99           150.774       69674
              7.5             -7.65            -11.19           151.052       69675
             7.42             -7.67            -11.16           151.064       69676
             7.47             -7.71            -11.24           151.001       69677
             7.42             -7.81            -11.43           151.512       69678
             7.32             -7.55            -11.05           151.186       69679
             7.21             -7.36            -10.74           150.753       69680
             7.25             -7.32            -10.61           150.709       69681
             6.99             -7.49            -10.84           152.296       69682
             6.81             -7.19            -10.52           151.523       69683
             6.66             -7.16            -10.61           152.518       69684
              6.7             -6.98            -10.38           151.266       69685
             6.53             -7.02            -10.64           152.799       69686
             6.59             -6.98            -10.53           151.966       69687
              6.8             -7.13             -10.7           150.812       69688
             6.89             -7.07            -10.62           150.564       69689
              6.9             -7.08            -10.63           151.303       69690
             6.91              -7.2            -10.89           152.021       69691
             7.03             -7.29            -11.21           152.153       69692
             7.21             -7.49            -11.44            151.63       69693
             7.37             -7.63             -11.6           151.706       69694
             7.54             -7.72            -11.67           150.924       69695
             7.47             -7.85            -12.01           152.169       69696
             7.64             -7.89            -12.17           151.685       69697
             7.68             -7.95            -12.36            151.75       69698
             7.74             -8.01            -12.44           152.238       69699
             7.64             -8.08            -12.53           152.535       69700
             7.52             -8.21            -12.62           152.798       69701
             7.51             -8.27            -12.64           153.269       69702
             7.72             -8.29            -12.72           152.911       69703
              7.8             -8.26            -12.84           152.605       69704
             7.84             -8.23            -12.92           152.596       69705
             7.86             -8.16            -12.95           153.012       69706
             7.83             -8.04             -12.8           152.392       69707
             7.91             -7.98            -12.68           152.034       69708
             7.88             -7.91            -12.62           151.883       69709
             7.97             -7.94            -12.54           151.656       69710
              8.3              -7.7            -12.24            150.16       69711
             8.61             -7.51            -12.13           148.641       69712
             8.98             -7.31            -11.96           147.296       69713
             9.53             -7.17            -11.85           145.275       69714
            10.06             -7.13            -11.66            143.27       69715
            10.62             -6.94            -11.59           141.095       69716
            10.85             -6.91            -11.62           139.863       69717
            11.39             -6.76            -11.56           138.611       69718
               12             -6.62            -11.47           137.081       69719
            12.46             -6.44            -11.47           135.329       69720
            13.06             -6.28            -11.36           133.631       69721
            13.67             -6.12            -11.23           131.566       69722
            14.27             -5.91            -11.02             129.9       69723
             14.7             -5.74            -10.81           128.395       69724
            14.91             -5.62            -10.55           127.318       69725
            15.29             -5.44            -10.36            126.18       69726
            16.02             -5.42            -10.52           125.143       69727
            16.44             -4.26             -9.19           120.357       69728
             15.8             -4.68             -9.38           121.939       69729
            15.85             -4.74             -9.13           121.659       69730
            15.68             -4.73                -9           122.065       69731
            15.54             -4.75             -9.05           122.009       69732
            15.46             -4.72             -8.95           121.875       69733
            15.41             -4.65             -8.77           121.686       69734
             15.4             -4.61             -8.69            121.54       69735
            15.32             -4.65             -8.74            121.76       69736
             15.3             -4.65             -8.79           121.974       69737
            15.32             -4.56             -8.79           121.777       69738
             15.2             -4.51             -8.77           121.799       69739
            15.01             -4.43             -8.71           121.857       69740
            14.73             -4.28             -8.44           121.671       69741
            14.38             -4.19             -8.17             121.5       69742
            13.95             -4.14             -7.97           121.537       69743
            13.67             -4.12              -7.9           121.846       69744
            13.15             -4.24             -7.99            122.89       69745
            12.73              -4.5             -8.32           124.583       69746
            12.54             -4.73             -8.58           126.096       69747
            12.01              -5.2             -9.08           128.649       69748
             11.5             -5.61             -9.56           131.505       69749
            10.88                -6            -10.02           134.579       69750
            10.29             -6.23            -10.25           137.258       69751
             9.82             -6.38            -10.43           139.351       69752
             9.34             -6.57            -10.72           141.534       69753
             9.09             -6.66            -10.84           142.985       69754
             9.16             -6.59            -10.78            143.02       69755
             9.44             -6.33             -10.5           141.607       69756
             9.46             -6.14            -10.31           140.678       69757
             9.04             -6.14            -10.34           141.544       69758
             8.66              -6.2            -10.41           142.788       69759
             8.34             -6.16            -10.34           143.827       69760
             8.27             -6.04            -10.17           144.011       69761
             8.61             -5.65             -9.69           141.919       69762
             8.72              -5.4             -9.38           140.191       69763
             7.96             -5.31             -9.11           140.814       69764
              7.2             -5.11             -8.59           142.571       69765
             6.72             -4.99             -8.21           143.571       69766
             6.37             -4.84             -7.87           144.321       69767
              5.9             -4.53             -7.38           144.555       69768
             5.33              -4.1             -6.77           144.785       69769
             4.83              -3.7             -6.11           144.887       69770
             4.55              -3.5             -5.63            144.77       69771
             3.78             -3.02             -4.76           145.015       69772
             2.88             -2.38             -3.62            145.39       69773
             2.21             -1.82             -2.81           145.461       69774
             1.66             -1.33             -2.05           145.313       69775
             1.47             -1.16             -1.78             143.7       69776
             1.02              -0.8             -1.12            143.18       69777
             0.71             -0.49             -0.67           138.525       69778
             0.77             -0.49             -0.71           135.576       69779
             0.13             -0.12             -0.12           137.952       69780
             0.02             -0.03              0.02           115.792       69781
             0.02             -0.03              0.03           80.8767       69782
                0             -0.03              0.03           84.4524       69783
            -0.01             -0.02             -0.02           92.4301       69784
             0.01              0.01             -0.01           62.1819       69785
                0              0.02             -0.03           73.6546       69786
                0              0.04             -0.01           54.1368       69787
             0.05              0.01              -0.1           112.886       69788
             0.22             -0.06             -0.27           130.723       69789
             0.46             -0.17             -0.44           130.666       69790
             1.66             -0.52             -1.23           127.416       69791
             3.72              -0.3             -1.28           110.897       69792
             4.94              0.54             -0.29           96.3558       69793
              5.5              0.95              0.16           88.7517       69794
             6.21              0.88              -0.1           89.5671       69795
             6.85              0.89             -0.22           90.7194       69796
             7.34              0.89             -0.38           91.7142       69797
             7.72              0.78             -0.73           93.5328       69798
              8.3              0.57             -1.29           96.5315       69799
             8.63              0.23              -1.9           100.117       69800
             8.77             -0.13             -2.45           103.451       69801
             8.45             -0.53                -3             107.2       69802
             7.78             -0.89             -3.29           111.111       69803
             6.67              -1.2              -3.4           115.391       69804
             4.94             -1.21             -2.98           119.942       69805
             4.91             -0.72             -2.17           116.033       69806
             4.57              0.54             -0.22           98.6672       69807
             3.03              1.67              1.68           71.5952       69808
             0.77              2.11              2.67           34.0759       69809
            -1.67              1.85              2.79           -14.162       69810
             -3.4              0.73              1.59          -54.8663       69811
            -3.87              0.15              0.96          -73.7027       69812
             -5.2              0.31              1.51          -74.5623       69813
            -6.59              0.49              2.19          -72.5926       69814
            -7.75              0.65              2.74          -70.9681       69815
            -8.34              0.67              2.89          -71.1736       69816
            -9.03              0.33              2.61          -73.4479       69817
            -9.48             -0.15               2.1          -77.3967       69818
            -9.84             -0.63              1.53           -81.193       69819
            -9.96             -0.86              1.23          -83.5198       69820
            -9.79             -0.47               1.6          -82.2314       69821
            -9.19               0.6              2.86           -75.306       69822
            -8.23              2.12              4.69          -63.2363       69823
            -7.06              3.55              6.37          -49.6428       69824
            -6.63              4.44              7.48          -40.5205       69825
            -6.25              4.72              7.78          -36.5192       69826
            -6.24               4.7              7.71          -35.6991       69827
            -6.61               4.8              7.88          -36.4835       69828
            -7.47              4.89              8.26          -38.5851       69829
            -7.96              5.14              8.66            -39.46       69830
            -8.46               5.7              9.56          -38.7889       69831
            -8.78              6.31             10.51          -37.2167       69832
            -9.22              6.82             11.33          -36.2313       69833
            -9.71               7.3             12.06          -35.7417       69834
           -10.26               7.5             12.59          -36.0195       69835
           -10.47              7.92             13.25          -35.4711       69836
            -10.8               8.2             13.72          -35.1157       69837
           -11.16              8.34             13.94          -35.3594       69838
           -11.26              8.41             14.07          -35.6011       69839
           -11.39              8.25             13.96          -36.1914       69840
           -11.87              7.99             13.74          -37.5135       69841
           -12.48              7.75             13.37          -39.6946       69842
           -13.46              7.38             12.89          -42.7124       69843
            -14.5              6.96             12.22          -46.3314       69844
           -15.61              6.41              11.5          -50.2249       69845
           -16.56              5.92             10.84          -53.7404       69846
           -17.21              5.64             10.48          -56.0493       69847
           -17.69              5.45             10.32          -57.4036       69848
            -17.9              5.49             10.46          -57.7721       69849
            -18.1               5.5             10.53          -57.9162       69850
            -18.3              5.46             10.59          -58.1873       69851
           -18.21               5.4             10.44          -58.4503       69852
           -18.25              5.43             10.45          -58.4113       69853
           -18.27              5.45             10.41          -58.4636       69854
           -18.42              5.41              10.4          -58.8362       69855
           -18.52              5.48             10.42          -58.6892       69856
           -18.61              5.57             10.57          -58.5425       69857
           -18.55              5.62              10.6          -58.3389       69858
           -18.47              5.57             10.59           -58.321       69859
           -18.38               5.6             10.53          -58.2035       69860
           -18.12              5.69             10.65          -57.7969       69861
           -18.68              5.73              10.8          -57.9182       69862
           -17.78              6.14              11.5          -55.1521       69863
           -17.05              6.55             12.12           -52.801       69864
           -16.55              6.95             12.62          -50.9425       69865
           -16.04              7.11             12.91          -49.7558       69866
           -15.46              7.42              13.3          -47.6602       69867
           -14.93              7.58             13.46          -45.9904       69868
           -14.29              7.81             13.79          -44.2864       69869
           -13.86              7.94             13.86          -42.8194       69870
           -12.84              8.29             14.22          -40.0891       69871
           -12.15              8.42             14.48          -37.7073       69872
           -12.15              8.46             14.42          -37.0352       69873
           -11.05              8.71             14.81          -34.6933       69874
           -10.57              8.87             14.93          -32.2623       69875
              -10              9.01                15          -30.5005       69876
            -9.66              9.14             15.07          -29.0476       69877
            -9.45              9.16             15.01          -28.4963       69878
            -9.11              9.22             15.01          -28.2706       69879
            -9.31               9.1             14.78          -28.3751       69880
            -9.11              9.18             14.85          -28.1367       69881
            -9.21              8.96              14.7          -28.4693       69882
            -8.68              8.96              14.5          -27.6362       69883
            -8.54                 9              14.3          -26.7516       69884
            -8.62              8.88             14.14          -27.4197       69885
            -8.38              9.32             14.38          -26.0394       69886
            -8.77              9.04             14.09          -27.2288       69887
            -8.89              9.03             14.09          -28.3212       69888
            -8.92              9.25             14.31          -28.1112       69889
            -9.03              9.49             14.55          -27.3182       69890
            -9.21               9.6             14.58          -27.8157       69891
            -9.33              9.56             14.62          -28.1667       69892
            -9.35              9.56             14.62          -28.3448       69893
            -9.27              9.83             14.61            -27.91       69894
             -9.4               9.7             14.42           -28.888       69895
             -9.4              9.72             14.36          -28.4556       69896
             -9.4               9.8             14.36          -28.3832       69897
            -9.51              9.83             14.28          -28.6974       69898
            -9.58              9.84             14.21          -28.9931       69899
            -9.54              9.74             14.02          -29.1592       69900
            -9.57              9.84             14.15          -29.1257       69901
            -9.89             10.09             14.55          -29.2444       69902
            -9.93             10.43             14.96          -29.0354       69903
            -9.93              10.5             15.06          -28.6542       69904
              -10             10.51             15.07          -28.6301       69905
           -10.36             10.67             15.34          -28.8442       69906
           -10.54             10.87             15.91           -29.151       69907
           -10.59             10.81                16          -28.7217       69908
           -10.78             10.56             15.86           -29.556       69909
           -10.95             10.43              15.9          -30.2736       69910
           -10.98             10.24             15.88          -30.7033       69911
           -10.89             10.02             15.84          -30.8714       69912
           -10.73              9.94             15.65          -30.7475       69913
           -10.26              9.81             15.32          -30.1818       69914
            -9.16              9.06             14.19          -29.2137       69915
            -8.14                 8              12.5          -29.2287       69916
            -7.56              7.01             10.96          -30.3096       69917
             -8.1              6.08              9.92          -34.5855       69918
            -8.66               4.8              8.27          -41.5524       69919
            -10.4              3.26              6.27          -53.4514       69920
           -11.66              1.85              4.38          -64.8556       69921
           -12.14              1.11              3.38          -71.8678       69922
           -12.81              0.86              3.18          -74.4424       69923
           -13.68              0.68              3.14          -75.8655       69924
           -14.38              0.65              3.23          -76.1133       69925
              -15              0.68              3.28          -76.6839       69926
           -15.35              0.64              3.26          -77.0019       69927
           -15.66              0.52              3.17          -77.5782       69928
           -15.84              0.42              2.95          -78.1729       69929
           -16.07              0.46              2.93          -78.5005       69930
           -16.21               0.5              2.98           -78.444       69931
           -16.29              0.43              2.77          -79.0119       69932
           -16.21              0.28              2.49          -79.8071       69933
           -16.22              0.13              2.32          -80.4723       69934
           -16.14              0.04               2.2          -81.0677       69935
           -15.97              0.19              2.17          -80.7442       69936
           -16.18              0.04              2.05          -81.4376       69937
           -16.37             -0.05              2.05          -81.7264       69938
           -16.38             -0.17              2.02          -82.0817       69939
           -16.38             -0.31              1.89          -82.4896       69940
           -16.22             -0.36              1.88            -82.66       69941
           -16.11             -0.34              1.95          -82.6321       69942
           -15.91              -0.3              2.09          -82.2529       69943
           -15.65             -0.34              1.94          -82.3627       69944
            -15.5             -0.35              1.91          -82.4776       69945
           -15.32             -0.38              1.93           -82.478       69946
           -15.14             -0.38              1.92          -82.4527       69947
           -14.96             -0.27              2.01          -82.0257       69948
           -14.84             -0.27              2.01          -81.8149       69949
           -14.65             -0.28              1.89          -81.9721       69950
           -14.47              -0.1              2.04          -81.5971       69951
           -14.13              0.19              2.36          -80.2423       69952
           -13.65              0.46              2.64          -78.6925       69953
            -13.2              0.27              2.32          -78.9467       69954
           -12.99             -0.12              1.82          -80.9344       69955
           -12.47              -0.3               1.4          -82.3723       69956
           -11.91             -0.24              1.43          -82.5939       69957
           -10.47             -0.01              1.58          -81.3238       69958
            -8.12              1.51              3.15          -71.7516       69959
            -5.74              3.21              5.11          -51.9167       69960
            -2.67              4.69              6.56          -25.3351       69961
             0.45               5.4              6.95           1.69631       69962
             1.85              5.75              7.24             16.05       69963
             2.24              6.03              7.72           19.8548       69964
             2.25              6.06              7.86            20.431       69965
             2.11              5.71              7.48           20.2528       69966
             1.43               4.6              6.21            19.021       69967
             0.56              3.09              4.35           16.0789       69968
            -0.57              1.94              2.89           4.22751       69969
            -1.27              1.35              2.23          -17.6853       69970
            -1.84              1.02              1.86          -38.3339       69971
            -3.67              0.88              1.96          -57.2474       69972
             -4.9              0.22              1.21          -71.8286       69973
            -5.58              0.06              1.09          -78.6037       69974
            -6.07               0.2              1.48          -76.4581       69975
             -6.5              0.18              1.75          -75.5828       69976
            -6.58              0.24              1.89          -73.8785       69977
            -6.89              0.25              1.99          -73.8261       69978
            -6.96              0.22              2.03          -74.2074       69979
            -7.08              0.22              1.98          -74.5036       69980
            -7.28              0.24              1.93          -74.9861       69981
            -7.41              0.33              2.04          -74.6538       69982
            -7.51              0.41              1.99          -74.5481       69983
            -7.55              0.37              2.02          -74.6662       69984
            -7.61              0.34              1.98          -75.2056       69985
            -7.67              0.24               1.9           -75.793       69986
            -7.63              0.12              1.79          -76.8195       69987
            -7.58              0.24              1.87          -76.1605       69988
            -7.81              0.35              1.87          -75.9777       69989
            -7.93              0.58                 2          -74.9463       69990
            -8.24              0.54              2.03          -75.4021       69991
            -8.33              0.63              2.14          -74.8455       69992
            -8.59              0.66               2.2          -74.4483       69993
            -8.86              0.66              2.26          -75.0479       69994
             -9.1               0.7              2.36          -74.4902       69995
            -9.58              0.66              2.37          -75.0533       69996
            -9.76              0.67              2.48          -75.1123       69997
            -9.94              0.55              2.53          -75.1312       69998
            -9.96              0.56              2.66          -75.1731       69999
              -10              0.38              2.53          -75.8939       70000
            -9.95              0.32              2.49          -75.9283       70001
            -9.85              0.38              2.63          -75.6036       70002
            -9.87              0.25              2.48          -76.0842       70003
            -9.77              0.45              2.72          -74.0614       70004
              -10               0.4              2.61          -74.0979       70005
           -10.17              0.59              2.66          -74.7485       70006
           -10.49              0.77               2.8          -74.3303       70007
           -10.94              0.84              2.98          -74.1482       70008
           -10.94               0.7              2.78          -74.9315       70009
           -11.26              0.82              2.76          -75.2959       70010
           -11.62              1.07              2.97          -74.4288       70011
           -12.03              1.21              3.17          -74.5835       70012
           -12.34              1.18              3.15           -74.214       70013
           -12.61               1.2              3.18          -74.2484       70014
           -12.61              1.33              3.15          -74.3523       70015
           -12.69              1.46              3.24          -73.6281       70016
           -12.88              1.51               3.3          -73.6581       70017
           -13.24              1.24              3.08          -74.8322       70018
           -13.13              1.08              2.84          -76.3216       70019
           -12.63              1.02              2.71          -75.9293       70020
           -11.98              1.11              2.64          -75.7286       70021
           -11.14              0.97              2.41          -75.9996       70022
            -9.81              0.86              2.06          -76.0822       70023
            -8.38              0.78              1.89          -75.1353       70024
            -6.58               0.6              1.57          -75.8783       70025
             -4.6              1.11              2.01          -67.7389       70026
            -2.73              1.77               2.6          -49.7851       70027
            -1.09              2.22              2.82          -23.6024       70028
             0.01              2.54              3.18          0.489117       70029
             1.31              2.38              2.84           23.5231       70030
             2.72              1.64              1.74           56.0596       70031
             2.94              0.85              0.58           77.9164       70032
             3.36              0.32              -0.3           92.5359       70033
             3.44             -0.14             -0.91           102.269       70034
             3.12             -0.47             -1.19           108.837       70035
             3.29              -0.4             -1.19           110.008       70036
             3.42             -0.52             -1.29           110.257       70037
              3.7             -0.46             -1.23           108.527       70038
             4.23             -0.49             -1.33           108.366       70039
             4.77             -0.51             -1.35           107.001       70040
             5.57             -0.56             -1.53           106.984       70041
             6.38             -0.52             -1.62           105.755       70042
                7             -0.54             -1.62           104.532       70043
             7.29             -0.59             -1.68             104.6       70044
             7.47             -0.65             -1.75           104.901       70045
             7.59             -0.75             -1.94           105.379       70046
                8              -0.8             -2.06            105.56       70047
             8.39             -0.99             -2.19           106.682       70048
             8.72             -1.12             -2.37            107.15       70049
             8.52             -1.21             -2.41           107.685       70050
             8.22             -1.27             -2.41           108.536       70051
             7.78             -1.36             -2.39           109.318       70052
             7.45             -0.96             -1.76           106.948       70053
             6.96             -0.25             -0.69           100.474       70054
             6.12              0.56               0.8           90.0094       70055
              4.6              1.51              2.25           73.2471       70056
             3.16              2.02              3.17           54.4581       70057
              2.3              2.31              3.66           40.5709       70058
              1.7              2.61              4.07           30.9848       70059
             1.42              2.82              4.33           23.9626       70060
             2.13              3.02              4.46           30.6898       70061
             1.53              3.27              4.68           24.6007       70062
              1.4              3.44              4.79           22.7299       70063
              1.3              3.53              4.81           20.5212       70064
             0.31              3.62              4.96           11.9148       70065
            -1.06               3.6              5.13          -3.49877       70066
            -2.47              3.57              5.16          -15.8709       70067
            -3.53              3.16              4.61          -27.9397       70068
            -4.59              2.71              4.04          -40.7068       70069
            -5.73              2.27              3.62          -52.2732       70070
            -6.01              2.03              3.28          -56.5652       70071
             -6.1              1.73              2.92          -59.9923       70072
             -6.2              1.45              2.57          -64.0113       70073
            -6.34              1.25              2.35           -66.453       70074
            -5.15              0.95              1.73          -68.7361       70075
            -3.86              0.68              1.13          -70.0841       70076
            -3.26              0.47              0.83          -72.2828       70077
            -2.94               0.3              0.61          -74.7007       70078
            -2.85              0.11              0.29          -79.8276       70079
            -2.79             -0.01              0.15           -83.703       70080
             -2.3              0.27              0.51           -77.526       70081
            -1.33              0.87               1.2          -53.0467       70082
            -0.52              1.13              1.47          -24.0458       70083
             0.22               1.1              1.15           7.01563       70084
             0.45              0.78              0.65           26.0461       70085
             0.22              0.44              0.21           32.1676       70086
             0.23              0.49              0.24           38.3328       70087
             0.04              0.24             -0.06           42.5254       70088
