X Direction (m/s) | Y Direction (m/s) | Z Direction (m/s) | Heading (deg) | Time (sec) (XYZ in ecef coords)
            -0.01              0.01             -0.01          -67.2761      345635
             -0.5              0.39             -0.09          -62.5482      345636
            -0.12             -0.01             -0.11          -29.3819      345637
            -0.02              0.21             -0.11          -5.79339      345638
            -0.03              0.24             -0.12          -51.7458      345639
            -0.03               0.2              -0.1          -54.5661      345640
            -0.02              0.21             -0.12          -30.5491      345641
            -0.03              0.18             -0.09          -64.9921      345642
                0              0.02             -0.02           84.3332      345643
                0                 0             -0.01           112.014      345644
                0                 0                 0           143.898      345645
                0                 0                 0           187.419      345646
             0.01                 0                 0           190.447      345647
             0.01             -0.01                 0          -78.7676      345648
             0.01             -0.01                 0           256.391      345649
             0.01                 0                 0          -78.7676      345650
                0                 0                 0          -57.2317      345651
             0.01                 0                 0           41.7737      345652
             0.01             -0.01              0.01            86.504      345653
             0.01             -0.01                 0           66.7022      345654
             0.01             -0.01                 0           7.24348      345655
                0                 0             -0.01          -17.2898      345656
             0.01                 0                 0           14.9701      345657
                0                 0             -0.01           22.8032      345658
             0.01                 0                 0          -21.6111      345659
                0                 0                 0          -4.87831      345660
            -0.11             -0.72             -1.02           188.928      345661
            -0.27             -1.52             -2.12           191.214      345662
            -0.39             -2.33             -3.27           191.807      345663
            -0.53             -3.11             -4.37           192.082      345664
            -0.58             -3.51             -4.91            192.06      345665
            -0.55             -3.26             -4.56           191.433      345666
            -0.42             -2.45             -3.43           191.634      345667
            -0.28             -1.65             -2.32           191.641      345668
            -0.52             -0.48             -0.58           206.403      345669
            -5.65             -0.19              0.75          -84.9966      345670
           -10.31             -0.36              1.35          -82.4501      345671
              -15             -0.49              2.01          -82.3416      345672
           -16.52             -0.64              2.07           -82.655      345673
           -14.83             -0.61              1.78          -82.8881      345674
           -16.56             -0.45              2.33          -82.1713      345675
           -16.35             -0.48              2.27          -82.2523      345676
           -16.52             -0.69                 2           -82.869      345677
           -16.42              -1.2              1.68           -84.767      345678
           -16.52             -0.71              2.28          -82.8721      345679
           -12.66             -0.52              1.82          -82.3687      345680
           -16.44             -0.47              2.48          -81.2649      345681
           -16.37             -0.35              2.62          -80.9307      345682
           -13.65             -0.65              1.79          -82.2704      345683
           -16.35             -0.63              2.31          -81.9179      345684
           -16.54             -0.59              2.33          -81.9467      345685
           -10.28             -0.43              1.33           -81.221      345686
           -16.46             -0.59              2.22          -81.6584      345687
           -15.22             -0.39              2.24           -80.779      345688
            -12.6             -0.43              1.69          -81.0639      345689
           -16.44              -0.5              2.27          -81.4908      345690
           -15.51             -0.59              1.98           -81.949      345690
           -15.29             -0.38              2.13          -81.1333      345691
           -16.52             -0.38              2.38          -81.4801      345693
           -16.03             -0.43              2.21          -81.5926      345694
           -14.61             -0.35              2.08          -81.6829      345695
           -12.25             -0.32              1.71          -82.2001      345696
             -9.9             -0.25               1.4          -82.0348      345697
            -7.39             -0.09              1.18          -81.5259      345698
           -12.82              0.33              2.77          -78.5212      345699
           -15.82              -0.5              2.12          -81.4218      345700
           -16.55             -0.51              2.25          -82.4237      345701
           -16.55             -0.52              2.23          -82.3282      345702
           -16.52             -0.54               2.2          -82.4145      345703
           -16.56             -0.51              2.25           -82.314      345704
           -16.55             -0.55              2.19          -82.4264      345705
           -16.55             -0.52              2.25          -82.3866      345706
            -14.3             -0.25              2.36          -81.3572      345707
            -12.5             -0.58              1.58          -81.4852      345708
           -16.46              -0.6              2.22          -81.6938      345709
           -16.48             -0.66              2.15          -82.2402      345710
           -16.54              -0.6              2.22          -82.2503      345711
           -16.47             -0.59              2.17          -80.7913      345712
           -16.55             -0.56              2.22          -81.5688      345713
           -14.33             -0.52              1.88          -80.6957      345714
           -11.36             -3.23             -2.56           264.669      345715
           -13.81             -0.53               1.8          -85.6627      345716
           -17.35             -1.03              1.74          -83.2677      345717
           -16.54             -0.47              2.37          -82.8743      345718
           -16.51             -0.46              2.37          -82.1803      345719
           -11.35             -0.31              1.58          -81.3715      345720
            -16.5             -0.53              2.18          -82.5473      345721
           -16.55             -0.54              2.19          -82.6333      345722
           -16.51             -0.51              2.24          -82.5862      345723
           -14.46             -0.49              1.99          -82.9992      345724
           -16.54             -0.77              1.95          -83.6784      345725
           -16.57             -0.73              1.99          -83.4537      345726
            -16.8             -0.69              2.03          -83.4422      345727
           -16.59             -0.77              1.88          -83.5266      345728
           -16.48             -0.73              1.88           -82.586      345729
           -16.66             -0.63              1.84          -78.3814      345730
           -16.61             -0.73              1.83          -82.1572      345731
           -16.54             -0.82              1.77          -84.4848      345732
           -14.13             -0.76               1.4          -86.7404      345733
           -16.59             -0.96              1.58           -87.356      345734
           -16.57             -1.06              1.45          -86.9547      345735
           -15.07                -1              1.37          -86.8804      345736
            -16.6             -1.23              1.29          -88.0492      345737
           -16.58             -1.21              1.31          -86.6709      345738
           -16.62              -1.2              1.31          -86.4034      345739
           -13.96             -1.02              1.14          -86.2844      345740
           -16.59             -1.33              1.15          -86.0733      345741
           -15.44             -1.07              1.31          -85.1244      345742
           -16.62             -1.43                 1          -86.1977      345743
           -16.59             -1.44              0.96          -86.7919      345744
           -16.58             -1.66              0.92          -87.7513      345745
            -16.6             -1.67              0.82          -87.6535      345746
            -16.6             -1.65               0.8          -87.7432      345747
           -14.77             -1.34              0.78          -87.4693      345748
           -11.46              1.86              4.72          -73.6652      345749
           -16.12             -1.08              1.22          -81.4994      345750
           -16.48             -1.19              1.21          -86.4134      345751
            -16.6             -1.51               0.8          -87.2587      345752
            -16.4             -1.69              0.44           -88.545      345753
           -16.59             -1.71              0.47           -88.713      345754
           -16.41              -1.7              0.48          -88.6027      345755
           -16.59             -1.62              0.64          -88.3004      345756
           -16.59             -1.63              0.62          -88.1205      345757
            -16.6             -1.63              0.64          -88.0133      345758
           -16.61             -1.62              0.65          -88.0179      345759
           -16.61             -1.61              0.68          -87.8535      345760
           -16.61             -1.63              0.65          -87.8861      345761
            -16.6             -1.63              0.65          -88.0575      345762
           -16.61             -1.65              0.63          -88.1247      345763
           -16.62             -1.63              0.65          -87.9863      345764
           -16.61             -1.64              0.64          -88.0069      345765
            -16.6             -1.61              0.69          -87.8762      345766
            -16.6             -1.64              0.65          -87.9724      345767
           -16.61             -1.65              0.63          -87.9396      345768
            -16.6             -1.64              0.64           -88.053      345769
           -19.56             -1.68              1.07          -87.5063      345770
           -16.64              -1.6              0.67          -85.4627      345771
            -16.6              -1.6              0.67          -85.8743      345772
           -16.61              -1.6              0.68          -87.8788      345773
           -16.62             -1.63              0.65          -88.2601      345774
           -16.87             -1.69              0.62          -86.5183      345775
           -16.52             -1.56              0.65          -86.4378      345776
           -16.59             -1.59              0.63          -88.2524      345777
           -16.61             -1.59              0.66          -88.0665      345778
           -16.61             -1.59              0.67          -88.1324      345779
           -15.47             -1.66               0.3          -88.7016      345780
           -16.58              -1.7              0.47          -88.6253      345781
           -16.56             -1.78              0.34          -89.2118      345782
           -15.83             -1.96                 0           269.741      345783
           -16.58              -2.1             -0.05           269.389      345784
           -15.79             -2.18             -0.23           268.098      345785
           -14.65             -2.38             -0.53           267.388      345786
           -13.74             -2.24             -0.43           267.196      345787
           -14.94             -2.64             -0.56           265.633      345788
           -16.38              -3.1             -1.11           265.338      345789
           -15.87             -3.27             -1.54           264.519      345790
           -14.88             -3.12             -1.49           263.519      345791
            -7.93             -1.65              -1.1           16.2293      345792
            -9.75             -2.09             -1.34           244.023      345793
           -11.73             -3.02             -1.06           256.466      345794
           -16.04             -3.89             -2.44           260.595      345795
            -15.4             -3.86             -2.86           258.616      345796
           -11.97             -2.93             -1.98           257.731      345797
            -13.2             -3.71              -2.5           259.763      345798
           -15.61             -4.52             -3.03           256.934      345799
           -15.29             -4.75             -3.67           256.229      345800
           -10.47             -3.54             -2.86            254.31      345801
           -14.11             -4.61             -3.86           253.774      345802
           -15.27             -5.11             -4.42             253.7      345803
           -13.39             -4.88             -4.24           251.929      345804
           -14.64              -5.2             -4.19           252.294      345805
            -14.4             -5.55             -4.74           251.424      345806
           -15.02             -5.77             -5.09           250.829      345807
           -12.87             -5.19             -4.71           250.147      345808
           -14.49             -6.22             -5.67           248.501      345809
           -14.32             -6.19             -5.55           248.804      345810
           -11.61              -5.9             -5.76           246.133      345811
            -12.9             -5.92             -5.71           246.398      345812
           -10.69             -4.94             -4.71           247.116      345813
           -13.21             -6.25             -6.25           246.047      345814
            -9.49             -4.57             -4.69           245.687      345815
           -13.81             -6.46             -6.64           244.664      345816
           -13.76             -6.56             -6.82           244.984      345817
           -13.77             -6.54             -6.82           244.379      345818
           -13.76             -6.53             -6.83           244.432      345819
            -7.74             -4.13             -4.51           241.969      345820
            -5.43              -2.6             -2.72           243.635      345821
            -1.05             -0.68             -0.79           242.028      345822
            -0.74             -0.72             -0.91            225.51      345823
            -0.39             -0.82             -1.11           211.543      345824
                0             -0.81             -1.16           194.929      345825
             0.41             -0.74             -1.13           176.827      345826
             0.69             -0.64             -1.03           149.138      345827
             7.28              -4.6             -7.94           140.244      345828
             7.58             -6.26            -10.49           146.513      345829
             9.18             -7.09            -11.93           146.086      345830
             8.49             -6.41            -10.83           145.123      345831
            10.67             -5.98            -10.52           139.086      345832
            12.52             -6.07            -10.97           134.557      345833
            10.75             -5.51             -9.71           134.352      345834
             11.3             -4.53             -8.27           130.796      345835
             12.8             -5.11             -9.41           128.254      345836
             9.21             -4.03             -7.41           129.686      345837
            12.61             -5.13             -9.57           129.437      345838
             11.5             -4.43             -8.17           128.465      345839
             1.28             -0.42             -0.67           127.215      345840
             1.37             -0.14             -0.32           107.701      345841
             1.42               0.1             -0.02           91.4108      345842
             1.35              0.32              0.29           75.4072      345843
             1.14              0.47              0.53           62.1706      345844
             0.88              0.64              0.81           46.7964      345845
             1.28              1.11               1.4           40.4479      345846
             2.06              1.86              2.33           41.1225      345847
              2.9              2.56              3.17           42.4588      345848
             3.67              3.28              4.07           43.1186      345849
             4.46              3.99              4.94           43.3349      345850
             5.29               4.7               5.8           43.7978      345851
             5.39              4.82              5.94           43.8634      345852
             4.62               4.1              5.04           43.9314      345853
             3.82               3.4              4.18           43.8953      345854
             3.02              2.69              3.31           43.4716      345855
             2.17              1.98              2.44           42.6297      345856
              1.4              1.26              1.56           41.7787      345857
             1.37              1.26              1.56           38.2391      345858
