X Direction (m/s) | Y Direction (m/s) | Z Direction (m/s) | Heading (deg) | Time (sec) (XYZ in ecef coords)
            -0.01              0.02             -0.02          -67.2763      259241
            -0.02              0.03             -0.01          -66.0556      259242
             0.05             -0.12              0.06          -26.4965      259243
                0             -0.05              0.01          -22.9985      259244
             0.02              0.04             -0.03           214.754      259245
            -0.01              0.02             -0.01           259.114      259246
            -0.01              0.03             -0.01           263.177      259247
            -0.01             -0.02              0.01           264.846      259248
                0             -0.01              0.01           10.4772      259249
                0                 0                 0           5.91683      259250
                0                 0                 0           4.74315      259251
                0             -0.01                 0           3.07708      259252
                0             -0.02              0.01           3.48232      259253
                0             -0.01              0.01           2.66141      259254
                0             -0.01                 0          0.221152      259255
                0                 0                 0        -0.0695678      259256
                0                 0                 0         -0.559646      259257
                0             -0.01                 0           4.47818      259258
                0                 0                 0           5.10736      259259
                0                 0                 0           9.03565      259260
            -0.11             -0.73                -1           191.699      259261
            -0.27             -1.53             -2.11           191.523      259262
             -0.4             -2.34             -3.26           191.812      259263
            -0.54             -3.12             -4.35           191.789      259264
            -0.65             -3.92              -5.5           191.849      259265
            -0.64             -3.54             -4.95           192.076      259266
            -0.45             -2.75             -3.83           191.186      259267
            -0.34             -1.96             -2.72           191.681      259268
            -7.74             -0.26              1.05           268.776      259269
           -16.01             -0.53              2.16           -82.223      259270
           -22.15             -0.78              2.88           -82.451      259271
           -22.53              -1.6              1.75          -84.7219      259272
           -22.05             -0.56              3.13           -82.302      259273
           -22.56             -1.03              2.43          -82.9878      259274
           -20.11              -0.8              2.25          -82.9391      259275
           -21.99             -0.61              2.88          -82.3528      259276
           -18.85             -0.36              2.73          -81.1862      259277
           -17.05              0.16              3.14          -79.0588      259278
           -18.02             -0.42              2.45          -79.7966      259279
           -22.08             -0.57              3.03          -81.5495      259280
           -21.97              -0.6              3.01          -81.8879      259281
            -22.1             -0.67              2.96          -81.9205      259282
           -20.53             -0.25              3.04          -80.3091      259283
           -19.11              -0.4              2.73          -80.4683      259284
           -14.72             -0.15              2.22          -80.1637      259285
           -16.92             -0.44              2.19          -81.8747      259286
              -22             -0.46              3.13          -81.7686      259287
           -20.27              0.08              3.36          -79.0249      259288
            -17.2             -0.32              2.33          -81.9707      259289
           -13.09             -0.28              1.77          -82.2761      259290
           -13.34              0.33              2.77          -79.2958      259291
           -20.81             -0.63               2.8          -81.5377      259292
           -22.09             -0.68                 3          -82.4212      259293
           -22.03             -0.69              2.98          -82.4372      259294
           -22.08             -0.71              2.96          -82.3879      259295
           -22.03              -0.7              2.97          -82.3216      259296
           -22.07             -0.72              2.95          -82.3521      259297
           -21.68             -0.99              2.43          -83.1749      259298
           -22.04             -0.75              2.87          -82.6819      259299
           -22.11             -0.74              2.94          -81.6734      259300
           -21.95             -2.13              0.98          -85.6934      259301
           -21.48             -0.64                 3          -83.1945      259302
           -17.63             -0.78              2.06          -82.6573      259303
           -15.45             -3.77             -2.53            265.72      259304
           -20.37             -1.11              2.06           -85.265      259305
           -21.04              -0.8              2.62          -82.9959      259306
           -21.28             -0.57              2.99           -81.374      259307
           -22.11             -0.76              2.93          -82.4264      259308
           -22.04             -0.73              2.96          -82.4717      259309
           -21.87             -0.51              3.24          -81.6315      259310
            -22.1             -0.94              2.65          -82.3868      259311
           -20.32             -0.57              2.85          -81.8988      259312
            -22.1                -1              2.54           -82.666      259313
           -21.65             -1.03              2.42          -83.2423      259314
           -22.09             -1.06              2.47          -83.3792      259315
           -20.43             -1.02              2.19          -82.9119      259316
           -22.13             -1.06              2.46          -83.1007      259317
           -21.84             -1.27              1.98          -84.3767      259318
           -20.69             -1.22              1.79          -83.2735      259319
           -21.31             -1.32              1.71          -85.3535      259320
           -22.16             -1.52              1.67          -85.7074      259321
           -22.17             -1.55              1.67          -85.8408      259322
           -22.12             -1.67              1.52          -84.9259      259323
           -21.19             -1.38               1.7          -83.7647      259324
           -22.26              -1.9              1.11          -85.3582      259325
           -22.16             -1.85              1.22          -87.1368      259326
           -22.46             -1.86              1.11          -86.2037      259327
           -22.13             -1.97              0.97          -86.7437      259328
           -19.52             -1.75              0.81          -87.5841      259329
            -19.4              0.47              3.83           -80.816      259330
           -21.34             -1.58              1.45          -83.3195      259331
            -19.6             -1.93               0.6          -86.2616      259332
           -22.61             -2.49              0.28          -88.5833      259333
           -22.17             -2.27               0.6          -88.8495      259334
           -19.27             -1.04              1.83           -84.413      259335
           -22.17             -2.13              0.88          -87.6149      259336
           -22.17             -2.15              0.86          -87.9269      259337
           -22.15             -2.16              0.87          -88.0215      259338
           -22.13             -2.16              0.88          -88.1494      259339
           -22.16              -2.2              0.84          -88.2346      259340
           -22.15             -2.21              0.83          -88.4313      259341
           -22.16             -2.19              0.87          -88.5052      259342
           -22.14             -2.18              0.88          -88.4002      259343
           -22.17             -2.19              0.89          -88.3327      259344
           -22.16             -2.17               0.9          -88.2459      259345
           -23.63              -2.7              0.52          -89.4787      259346
           -22.17             -2.25              0.89          -88.1261      259347
           -22.14             -2.22               0.9          -88.0962      259348
           -22.17             -2.21              0.91          -87.9467      259349
           -21.79             -2.17                 1          -87.4632      259350
           -22.15             -2.23              0.96          -87.5651      259351
           -22.15             -2.24              0.92          -87.9228      259352
           -22.11             -2.22              0.92          -87.9192      259353
           -22.29             -2.39              0.68          -86.6738      259354
           -25.21             -3.22                 0           268.781      259355
           -21.94             -2.94             -0.13          -89.9235      259356
           -22.51             -2.63              0.16          -88.9327      259357
              -21             -3.09             -0.73           268.309      259358
           -20.78             -2.82             -0.54           268.384      259359
           -19.75             -3.33             -1.38            265.98      259360
            -20.3              -3.7              -1.8           264.512      259361
           -21.05             -3.93             -2.14           264.617      259362
           -17.46             -3.66             -2.38           264.422      259363
           -15.62             -3.46             -2.23           261.658      259364
           -20.79             -4.59             -2.96           262.363      259365
            -21.4             -4.78             -3.07             262.4      259366
            -16.7             -4.29             -3.12           258.872      259367
            -19.2              -5.1             -3.67           259.247      259368
           -17.59             -4.52             -3.29           259.132      259369
           -17.86             -5.48             -4.68           255.404      259370
           -20.95             -6.74             -6.08            253.91      259371
           -18.83             -6.46             -5.78           251.736      259373
           -15.61                -6             -5.39           249.914      259374
           -19.46             -7.31             -6.86           250.237      259375
           -18.98             -7.99             -7.85           248.359      259376
           -18.72             -8.21             -8.17           246.551      259377
           -17.34             -8.94             -9.09           241.387      259378
           -17.99             -7.46             -7.01           246.638      259379
           -17.52             -8.21             -8.27           245.612      259380
           -18.19             -8.66              -8.8           244.424      259381
           -15.78              -9.7            -10.64           237.122      259382
           -18.32             -8.84             -9.03           242.084      259383
            -18.3             -8.79             -9.03            243.52      259384
           -14.52             -7.06             -7.31           243.261      259385
            -2.29             -1.44             -1.52           238.884      259386
            -0.85             -1.66              -2.1           203.157      259387
             0.67             -1.54             -2.21            159.03      259388
             5.15             -3.64             -6.34           146.135      259389
            11.59             -8.86            -14.94           143.822      259390
            11.69              -9.2            -15.48           146.025      259391
            13.44             -8.07            -14.07           139.623      259392
             14.5             -7.31            -13.14           136.656      259393
               15              -6.9            -12.62           131.706      259394
             16.8             -6.56            -12.39           128.284      259395
             12.3              -5.3             -9.74           128.273      259396
            16.92              -6.7            -12.66           127.517      259397
             4.31             -1.45             -2.86           123.177      259398
             2.78              0.04             -0.45           107.339      259399
              2.5              0.88              0.83           85.6611      259400
             1.04              0.89              1.22           67.3051      259401
             2.37              2.05              2.65           53.2748      259402
             3.17               2.8              3.56           50.7188      259403
             3.98              3.52              4.43           49.6864      259404
              4.8              4.23              5.29            49.115      259405
             5.59              4.95              6.18            48.387      259406
             5.42              4.81              6.01           47.8996      259407
              4.6               4.1              5.13           48.1037      259408
             3.81              3.37              4.21           48.9031      259409
             3.01              2.68              3.38           49.4275      259410
             2.24              1.94              2.45           50.9563      259411
             2.24              1.87              2.35           56.2145      259412
             2.25              1.79              2.23           61.9269      259413
